[SAMPLE]
{
[VERSION]
{
ASRFormat	1.0.0
MacroVersion	B.02.03 - Build 003 - 08/30/2017 12:00:00
CSVersion	 C.01.09 [144]
}
Sample	1
Well	1:1
TrayTypeL	104
TrayTypeR	102
PlateID	
PlateNum	0
PlateType	
PlatePos	
Position	1
PlateNumRows	0
PlateNumCols	0
PlateIsWell	0
Plate	01BL,YX,SD,1:10,2:10,3: 90.0,4: 90.0,5:  0.0,6:  0.0,7:O,8:O,9:1265.0,10:845.0,11:660.0,12: 90.0,13:135.0,14:110.0
FileName	Sulfa Drug LCMS Standard.D
SampleType	0
SampleID	Sulfa Drug LCMS Standard
SampleDescription	Walkup method: '2 min_10 to 100_pos' ,Target: 
Date	09-May-2020
Time	15:28:56
JobCode
TaskCode
UserName	Agilent
LabName
Instrument	LCMS_1
Conditions
Submitter	Ronghui Zhou
AnalysisTime	2
FileType	ChemStation
Method	ColPos_2 min_10 to 100.M
DAMethod	ColPos_2 min_10 to 100.M
Process
MSTune
MSMethod
InletMethod
PreRunMethod
PostRunMethod
SwitchMethod
FractionMethod
AcquisitionProcess
AcquisitionProcessParameters
AcquisitionProcessOptions
InjectionVolume	3
ReportScheme
SampleReportEnable
SampleReportFormat
[CONVERSIONPARMS]
{
SpecThreshSel	1
SpecThreshPer	5
SpecThreshNum	99
CalcPeakPurity	1
SplitByPlate  	0
CopyASRFile  	0
CopyASRFileLoc  	
auto_printrpt 	0
Auto_GenSumRprt 	0
auto_printSel 	1
InclUVspectra 	0
EZXSShowUVCh  	0
Auto_Integrate	0
Autoint_Start 	0
Autoint_End   	99
AutoSGFilterLen	7
CombineEICs   	0
MSTrgtPctFound	8
MSTrgtPctCnfrm	20
Target source	internal
PkThresDAD	10
SigNumPksDAD	6
PkA100PctDAD	0
SigSmoothDAD	0
PkThresMSPos	10
SigNumPksMSPos	6
PkA100PctMSPos	0
SigSmoothMSPos	0
PkThresMSNeg	10
SigNumPksMSNeg	6
PkA100PctMSNeg	0
SigSmoothMSNeg	0
PkThresMSEIC	10
SigNumPksMSEIC	6
PkA100PctMSEIC	0
SigSmoothMSEIC	0
PkThresADC1	10
SigNumPksADC1	6
PkA100PctADC1	0
SigSmoothADC1	0
PkThresADC2	10
SigNumPksADC2	6
PkA100PctADC2	0
SigSmoothADC2	0
PkThresOther	10
SigNumPksOther	6
PkA100PctOther	0
SigSmoothOther	0
}
[COMPOUND]
{
;Mass	Formula
}
[FRACTION]
{
;Mass	Org. Target	Ion Mode	Start Time	End Time	Start Site	No. Of Tubes	Volume
}
[FUNCTION]
{
Function	1
IonMode
Type	DAD
Description	DAD1
[CHROMATOGRAM]
{
TraceNumber	1
Description	DAD1 A, 254nm(+/-4) NoRef
Type	EWC
Range	254,250:258
ProcDesc
MaxIntensity	281.858921
Delay	0
Unscaled	TRUE
[TRACE]
{
0.0008	0.08
0.0017	0.08
0.0025	0.08
0.0033	0.08
0.0042	0.08
0.0050	0.08
0.0058	0.08
0.0067	0.08
0.0075	0.08
0.0083	0.07
0.0092	0.07
0.0100	0.06
0.0108	0.06
0.0117	0.05
0.0125	0.05
0.0133	0.05
0.0142	0.06
0.0150	0.07
0.0158	0.08
0.0167	0.09
0.0175	0.10
0.0183	0.10
0.0192	0.11
0.0200	0.11
0.0208	0.11
0.0217	0.11
0.0225	0.11
0.0233	0.11
0.0242	0.10
0.0250	0.09
0.0258	0.09
0.0267	0.08
0.0275	0.08
0.0283	0.08
0.0292	0.09
0.0300	0.10
0.0308	0.11
0.0317	0.12
0.0325	0.13
0.0333	0.14
0.0342	0.14
0.0350	0.14
0.0358	0.13
0.0367	0.12
0.0375	0.11
0.0383	0.10
0.0392	0.09
0.0400	0.08
0.0408	0.08
0.0417	0.10
0.0425	0.11
0.0433	0.13
0.0442	0.14
0.0450	0.14
0.0458	0.15
0.0467	0.16
0.0475	0.16
0.0483	0.16
0.0492	0.16
0.0500	0.15
0.0508	0.14
0.0517	0.13
0.0525	0.11
0.0533	0.11
0.0542	0.10
0.0550	0.10
0.0558	0.10
0.0567	0.10
0.0575	0.09
0.0583	0.08
0.0592	0.08
0.0600	0.07
0.0608	0.06
0.0617	0.05
0.0625	0.04
0.0633	0.03
0.0642	0.03
0.0650	0.03
0.0658	0.03
0.0667	0.04
0.0675	0.05
0.0683	0.05
0.0692	0.04
0.0700	0.02
0.0708	0.00
0.0717	-0.01
0.0725	-0.02
0.0733	-0.03
0.0742	-0.03
0.0750	-0.03
0.0758	-0.03
0.0767	-0.05
0.0775	-0.06
0.0783	-0.06
0.0792	-0.06
0.0800	-0.06
0.0808	-0.05
0.0817	-0.05
0.0825	-0.05
0.0833	-0.06
0.0842	-0.07
0.0850	-0.09
0.0858	-0.09
0.0867	-0.09
0.0875	-0.08
0.0883	-0.07
0.0892	-0.06
0.0900	-0.05
0.0908	-0.04
0.0917	-0.03
0.0925	-0.03
0.0933	-0.04
0.0942	-0.04
0.0950	-0.03
0.0958	-0.03
0.0967	-0.02
0.0975	-0.02
0.0983	-0.02
0.0992	-0.01
0.1000	-0.00
0.1008	0.01
0.1017	0.01
0.1025	0.01
0.1033	0.01
0.1042	0.01
0.1050	0.01
0.1058	0.01
0.1067	0.00
0.1075	0.00
0.1083	0.01
0.1092	0.01
0.1100	0.02
0.1108	0.02
0.1117	0.03
0.1125	0.04
0.1133	0.04
0.1142	0.05
0.1150	0.05
0.1158	0.06
0.1167	0.07
0.1175	0.07
0.1183	0.07
0.1192	0.08
0.1200	0.07
0.1208	0.06
0.1217	0.06
0.1225	0.05
0.1233	0.05
0.1242	0.05
0.1250	0.05
0.1258	0.06
0.1267	0.06
0.1275	0.06
0.1283	0.06
0.1292	0.07
0.1300	0.07
0.1308	0.07
0.1317	0.06
0.1325	0.06
0.1333	0.06
0.1342	0.06
0.1350	0.06
0.1358	0.06
0.1367	0.07
0.1375	0.08
0.1383	0.09
0.1392	0.09
0.1400	0.10
0.1408	0.10
0.1417	0.10
0.1425	0.10
0.1433	0.09
0.1442	0.08
0.1450	0.08
0.1458	0.08
0.1467	0.07
0.1475	0.07
0.1483	0.07
0.1492	0.08
0.1500	0.08
0.1508	0.09
0.1517	0.09
0.1525	0.09
0.1533	0.10
0.1542	0.09
0.1550	0.09
0.1558	0.08
0.1575	0.08
0.1583	0.08
0.1592	0.09
0.1600	0.10
0.1608	0.10
0.1617	0.10
0.1625	0.10
0.1633	0.11
0.1642	0.11
0.1650	0.11
0.1658	0.11
0.1667	0.12
0.1675	0.12
0.1683	0.12
0.1692	0.12
0.1700	0.12
0.1708	0.12
0.1717	0.11
0.1725	0.11
0.1733	0.10
0.1742	0.10
0.1750	0.10
0.1758	0.10
0.1767	0.11
0.1775	0.12
0.1783	0.13
0.1792	0.13
0.1800	0.13
0.1808	0.12
0.1817	0.12
0.1825	0.11
0.1833	0.10
0.1842	0.09
0.1850	0.09
0.1858	0.08
0.1867	0.07
0.1875	0.06
0.1883	0.05
0.1892	0.04
0.1900	0.03
0.1908	0.02
0.1917	0.02
0.1925	0.01
0.1933	-0.01
0.1942	-0.02
0.1950	-0.04
0.1958	-0.05
0.1967	-0.06
0.1975	-0.07
0.1983	-0.07
0.1992	-0.08
0.2000	-0.08
0.2008	-0.08
0.2017	-0.07
0.2025	-0.06
0.2033	-0.06
0.2042	-0.07
0.2050	-0.08
0.2058	-0.10
0.2067	-0.12
0.2075	-0.14
0.2083	-0.14
0.2092	-0.14
0.2100	-0.13
0.2108	-0.12
0.2117	-0.11
0.2125	-0.10
0.2133	-0.09
0.2142	-0.09
0.2150	-0.08
0.2158	-0.08
0.2167	-0.08
0.2175	-0.08
0.2183	-0.08
0.2192	-0.08
0.2200	-0.08
0.2208	-0.07
0.2217	-0.08
0.2225	-0.08
0.2233	-0.08
0.2242	-0.08
0.2250	-0.08
0.2258	-0.07
0.2267	-0.06
0.2275	-0.04
0.2283	-0.03
0.2292	-0.02
0.2300	-0.01
0.2308	-0.01
0.2317	-0.01
0.2325	-0.01
0.2333	-0.00
0.2342	0.00
0.2350	0.01
0.2358	0.02
0.2367	0.02
0.2375	0.02
0.2383	0.03
0.2392	0.03
0.2400	0.03
0.2408	0.03
0.2417	0.03
0.2425	0.02
0.2433	0.02
0.2442	0.03
0.2450	0.03
0.2458	0.04
0.2467	0.04
0.2475	0.05
0.2483	0.05
0.2492	0.05
0.2500	0.05
0.2508	0.06
0.2517	0.06
0.2525	0.06
0.2533	0.06
0.2542	0.06
0.2550	0.06
0.2558	0.06
0.2567	0.05
0.2575	0.05
0.2583	0.04
0.2592	0.04
0.2600	0.04
0.2608	0.04
0.2617	0.05
0.2625	0.06
0.2633	0.07
0.2642	0.09
0.2650	0.10
0.2658	0.10
0.2667	0.09
0.2675	0.08
0.2683	0.08
0.2692	0.06
0.2700	0.05
0.2708	0.05
0.2717	0.04
0.2725	0.04
0.2733	0.05
0.2742	0.05
0.2750	0.06
0.2758	0.07
0.2767	0.07
0.2775	0.08
0.2783	0.08
0.2792	0.08
0.2800	0.08
0.2808	0.09
0.2817	0.10
0.2825	0.11
0.2833	0.11
0.2842	0.11
0.2850	0.11
0.2858	0.11
0.2867	0.11
0.2875	0.11
0.2883	0.11
0.2892	0.11
0.2900	0.11
0.2908	0.10
0.2917	0.10
0.2925	0.10
0.2933	0.10
0.2942	0.11
0.2950	0.11
0.2958	0.12
0.2967	0.13
0.2975	0.14
0.2983	0.16
0.2992	0.17
0.3000	0.21
0.3008	0.26
0.3017	0.34
0.3025	0.42
0.3033	0.49
0.3042	0.56
0.3050	0.65
0.3058	0.76
0.3067	0.89
0.3075	1.08
0.3083	1.33
0.3092	1.60
0.3100	1.80
0.3108	1.81
0.3117	1.45
0.3125	0.50
0.3133	-1.24
0.3142	-3.92
0.3150	-7.66
0.3158	-12.49
0.3167	-18.39
0.3175	-25.21
0.3183	-32.62
0.3192	-40.09
0.3200	-46.84
0.3208	-52.06
0.3217	-55.08
0.3225	-55.62
0.3233	-53.78
0.3242	-49.95
0.3250	-44.71
0.3258	-38.69
0.3267	-32.42
0.3275	-26.19
0.3283	-20.07
0.3292	-14.11
0.3300	-8.44
0.3308	-3.19
0.3317	1.52
0.3325	5.62
0.3333	9.06
0.3342	11.80
0.3350	13.89
0.3358	15.39
0.3367	16.40
0.3375	17.02
0.3383	17.35
0.3392	17.47
0.3400	17.44
0.3408	17.31
0.3417	17.12
0.3425	16.88
0.3433	16.62
0.3442	16.35
0.3450	16.08
0.3458	15.82
0.3467	15.58
0.3475	15.37
0.3483	15.19
0.3492	15.02
0.3500	14.85
0.3508	14.67
0.3517	14.50
0.3525	14.35
0.3533	14.25
0.3542	14.20
0.3550	14.24
0.3558	14.34
0.3567	14.50
0.3575	14.68
0.3583	14.87
0.3592	15.04
0.3600	15.21
0.3608	15.35
0.3617	15.46
0.3625	15.55
0.3633	15.62
0.3642	15.67
0.3650	15.69
0.3658	15.69
0.3667	15.67
0.3675	15.62
0.3683	15.56
0.3692	15.47
0.3700	15.35
0.3708	15.20
0.3717	15.03
0.3725	14.83
0.3733	14.60
0.3742	14.37
0.3750	14.12
0.3758	13.85
0.3767	13.56
0.3775	13.24
0.3783	12.89
0.3792	12.46
0.3800	11.93
0.3808	11.24
0.3817	10.34
0.3825	9.16
0.3833	7.65
0.3842	5.80
0.3850	3.61
0.3858	1.10
0.3867	-1.66
0.3875	-4.60
0.3883	-7.62
0.3892	-10.62
0.3900	-13.47
0.3908	-16.08
0.3917	-18.35
0.3925	-20.21
0.3933	-21.60
0.3942	-22.50
0.3950	-22.95
0.3958	-22.97
0.3967	-22.61
0.3975	-21.94
0.3983	-21.05
0.3992	-20.01
0.4000	-18.86
0.4008	-17.66
0.4017	-16.42
0.4025	-15.16
0.4033	-13.90
0.4042	-12.63
0.4050	-11.37
0.4058	-10.13
0.4067	-8.94
0.4075	-7.81
0.4083	-6.75
0.4092	-5.77
0.4100	-4.87
0.4108	-4.06
0.4117	-3.33
0.4125	-2.67
0.4133	-2.10
0.4142	-1.61
0.4150	-1.18
0.4158	-0.82
0.4167	-0.50
0.4175	-0.23
0.4183	0.01
0.4192	0.21
0.4200	0.39
0.4208	0.54
0.4217	0.66
0.4225	0.76
0.4233	0.84
0.4242	0.90
0.4250	0.95
0.4258	0.99
0.4267	1.03
0.4275	1.07
0.4283	1.10
0.4292	1.13
0.4300	1.15
0.4308	1.18
0.4317	1.19
0.4325	1.21
0.4333	1.22
0.4342	1.23
0.4350	1.22
0.4358	1.21
0.4367	1.19
0.4375	1.16
0.4383	1.12
0.4392	1.07
0.4400	1.02
0.4408	0.98
0.4417	0.93
0.4425	0.88
0.4433	0.83
0.4442	0.78
0.4450	0.73
0.4458	0.68
0.4467	0.63
0.4475	0.59
0.4483	0.54
0.4492	0.50
0.4500	0.45
0.4508	0.41
0.4517	0.37
0.4525	0.34
0.4533	0.31
0.4542	0.28
0.4550	0.27
0.4558	0.26
0.4567	0.25
0.4575	0.23
0.4583	0.22
0.4592	0.21
0.4600	0.19
0.4608	0.18
0.4617	0.18
0.4625	0.18
0.4633	0.18
0.4642	0.18
0.4650	0.19
0.4658	0.20
0.4667	0.19
0.4675	0.19
0.4683	0.18
0.4692	0.18
0.4700	0.18
0.4708	0.18
0.4717	0.18
0.4725	0.19
0.4733	0.20
0.4742	0.21
0.4750	0.21
0.4758	0.21
0.4767	0.21
0.4775	0.20
0.4783	0.19
0.4792	0.18
0.4800	0.18
0.4808	0.18
0.4817	0.18
0.4825	0.18
0.4833	0.18
0.4842	0.18
0.4850	0.17
0.4858	0.17
0.4867	0.17
0.4875	0.17
0.4883	0.17
0.4892	0.17
0.4900	0.17
0.4908	0.16
0.4917	0.16
0.4925	0.17
0.4933	0.18
0.4942	0.19
0.4950	0.20
0.4958	0.21
0.4967	0.21
0.4975	0.21
0.4983	0.21
0.4992	0.22
0.5000	0.24
0.5008	0.27
0.5017	0.30
0.5025	0.33
0.5033	0.36
0.5042	0.37
0.5050	0.39
0.5058	0.41
0.5067	0.43
0.5075	0.46
0.5083	0.49
0.5092	0.53
0.5100	0.57
0.5108	0.62
0.5117	0.66
0.5125	0.71
0.5133	0.75
0.5142	0.78
0.5150	0.81
0.5158	0.84
0.5167	0.87
0.5175	0.91
0.5183	0.94
0.5192	0.97
0.5200	1.00
0.5208	1.01
0.5217	1.03
0.5225	1.04
0.5233	1.05
0.5242	1.06
0.5250	1.07
0.5258	1.08
0.5267	1.09
0.5275	1.10
0.5283	1.10
0.5292	1.11
0.5300	1.11
0.5308	1.11
0.5317	1.11
0.5325	1.10
0.5333	1.09
0.5342	1.08
0.5350	1.06
0.5358	1.04
0.5367	1.03
0.5375	1.02
0.5383	1.00
0.5392	0.99
0.5400	0.99
0.5408	0.97
0.5417	0.95
0.5425	0.92
0.5433	0.89
0.5442	0.86
0.5450	0.83
0.5458	0.81
0.5467	0.79
0.5475	0.77
0.5483	0.74
0.5492	0.71
0.5500	0.67
0.5508	0.63
0.5517	0.59
0.5525	0.56
0.5533	0.54
0.5542	0.52
0.5550	0.50
0.5558	0.49
0.5567	0.47
0.5575	0.45
0.5583	0.43
0.5592	0.42
0.5600	0.40
0.5608	0.39
0.5617	0.38
0.5625	0.37
0.5633	0.37
0.5642	0.36
0.5650	0.36
0.5658	0.36
0.5667	0.35
0.5675	0.34
0.5683	0.34
0.5692	0.33
0.5700	0.33
0.5708	0.32
0.5717	0.32
0.5725	0.32
0.5733	0.32
0.5742	0.32
0.5750	0.32
0.5758	0.31
0.5767	0.30
0.5775	0.30
0.5783	0.30
0.5792	0.30
0.5800	0.30
0.5808	0.30
0.5817	0.30
0.5825	0.30
0.5833	0.30
0.5842	0.30
0.5850	0.30
0.5858	0.30
0.5867	0.28
0.5875	0.27
0.5883	0.25
0.5892	0.24
0.5900	0.23
0.5908	0.22
0.5917	0.21
0.5925	0.21
0.5933	0.21
0.5942	0.20
0.5950	0.20
0.5958	0.20
0.5967	0.20
0.5975	0.20
0.5983	0.20
0.5992	0.19
0.6000	0.17
0.6008	0.16
0.6017	0.16
0.6025	0.15
0.6033	0.15
0.6042	0.16
0.6050	0.16
0.6058	0.17
0.6067	0.18
0.6075	0.18
0.6083	0.17
0.6092	0.16
0.6100	0.16
0.6108	0.15
0.6117	0.14
0.6125	0.14
0.6133	0.14
0.6142	0.15
0.6150	0.15
0.6158	0.15
0.6167	0.15
0.6175	0.15
0.6183	0.15
0.6192	0.15
0.6200	0.15
0.6208	0.15
0.6217	0.15
0.6225	0.15
0.6233	0.15
0.6242	0.15
0.6250	0.14
0.6258	0.13
0.6267	0.13
0.6275	0.12
0.6283	0.11
0.6292	0.10
0.6300	0.10
0.6308	0.11
0.6317	0.12
0.6325	0.12
0.6333	0.13
0.6342	0.14
0.6350	0.15
0.6358	0.15
0.6367	0.14
0.6375	0.13
0.6383	0.13
0.6392	0.13
0.6400	0.13
0.6408	0.13
0.6417	0.14
0.6425	0.14
0.6433	0.14
0.6442	0.13
0.6450	0.11
0.6458	0.10
0.6467	0.09
0.6475	0.09
0.6483	0.09
0.6492	0.09
0.6500	0.10
0.6508	0.11
0.6517	0.12
0.6525	0.13
0.6533	0.13
0.6542	0.13
0.6550	0.12
0.6558	0.11
0.6567	0.10
0.6575	0.09
0.6583	0.09
0.6592	0.09
0.6600	0.10
0.6608	0.11
0.6617	0.13
0.6625	0.13
0.6633	0.13
0.6642	0.12
0.6650	0.11
0.6658	0.09
0.6667	0.07
0.6675	0.05
0.6683	0.03
0.6692	0.02
0.6700	0.02
0.6708	0.01
0.6717	0.02
0.6725	0.03
0.6733	0.04
0.6742	0.06
0.6750	0.06
0.6758	0.06
0.6767	0.05
0.6775	0.05
0.6783	0.05
0.6792	0.06
0.6800	0.07
0.6808	0.08
0.6817	0.08
0.6825	0.08
0.6833	0.07
0.6842	0.06
0.6850	0.05
0.6858	0.05
0.6867	0.04
0.6875	0.04
0.6883	0.03
0.6892	0.02
0.6900	0.01
0.6908	0.01
0.6917	0.00
0.6925	0.01
0.6933	0.01
0.6942	0.02
0.6950	0.03
0.6958	0.03
0.6967	0.04
0.6975	0.04
0.6983	0.04
0.6992	0.03
0.7000	0.01
0.7008	-0.00
0.7017	-0.01
0.7025	-0.01
0.7033	-0.00
0.7042	0.01
0.7050	0.03
0.7058	0.04
0.7067	0.04
0.7075	0.03
0.7083	0.02
0.7092	0.01
0.7100	-0.01
0.7108	-0.01
0.7117	-0.02
0.7125	-0.01
0.7133	-0.01
0.7142	-0.00
0.7150	-0.01
0.7158	-0.01
0.7167	-0.02
0.7175	-0.02
0.7183	-0.04
0.7192	-0.05
0.7200	-0.05
0.7208	-0.05
0.7217	-0.05
0.7225	-0.05
0.7233	-0.05
0.7242	-0.04
0.7250	-0.03
0.7258	-0.03
0.7267	-0.03
0.7275	-0.03
0.7283	-0.03
0.7292	-0.03
0.7300	-0.03
0.7308	-0.03
0.7317	-0.03
0.7325	-0.03
0.7333	-0.03
0.7342	-0.04
0.7350	-0.05
0.7358	-0.05
0.7367	-0.06
0.7375	-0.05
0.7383	-0.04
0.7392	-0.03
0.7400	-0.03
0.7408	-0.03
0.7417	-0.04
0.7425	-0.05
0.7433	-0.05
0.7442	-0.06
0.7450	-0.05
0.7458	-0.05
0.7467	-0.04
0.7475	-0.04
0.7483	-0.04
0.7492	-0.04
0.7500	-0.04
0.7508	-0.04
0.7517	-0.04
0.7525	-0.04
0.7533	-0.04
0.7542	-0.04
0.7550	-0.05
0.7558	-0.05
0.7567	-0.04
0.7575	-0.04
0.7583	-0.03
0.7592	-0.03
0.7600	-0.03
0.7608	-0.03
0.7617	-0.03
0.7625	-0.03
0.7633	-0.04
0.7642	-0.05
0.7650	-0.05
0.7658	-0.06
0.7667	-0.07
0.7675	-0.07
0.7683	-0.07
0.7692	-0.07
0.7700	-0.07
0.7708	-0.07
0.7717	-0.07
0.7725	-0.07
0.7733	-0.07
0.7742	-0.07
0.7750	-0.08
0.7758	-0.08
0.7767	-0.09
0.7775	-0.09
0.7783	-0.10
0.7792	-0.09
0.7800	-0.09
0.7808	-0.09
0.7817	-0.09
0.7825	-0.09
0.7833	-0.09
0.7842	-0.10
0.7850	-0.11
0.7858	-0.12
0.7867	-0.13
0.7875	-0.14
0.7883	-0.15
0.7892	-0.15
0.7900	-0.16
0.7908	-0.16
0.7917	-0.16
0.7925	-0.16
0.7933	-0.16
0.7942	-0.15
0.7950	-0.14
0.7958	-0.14
0.7967	-0.14
0.7975	-0.14
0.7983	-0.14
0.7992	-0.14
0.8000	-0.14
0.8008	-0.15
0.8017	-0.15
0.8025	-0.16
0.8033	-0.16
0.8042	-0.17
0.8050	-0.17
0.8058	-0.19
0.8067	-0.20
0.8075	-0.21
0.8083	-0.21
0.8092	-0.22
0.8100	-0.22
0.8108	-0.21
0.8117	-0.20
0.8125	-0.20
0.8133	-0.20
0.8142	-0.20
0.8150	-0.21
0.8158	-0.22
0.8167	-0.24
0.8175	-0.26
0.8183	-0.28
0.8192	-0.30
0.8200	-0.31
0.8208	-0.32
0.8217	-0.34
0.8225	-0.35
0.8233	-0.35
0.8242	-0.34
0.8250	-0.34
0.8258	-0.34
0.8267	-0.35
0.8275	-0.35
0.8283	-0.36
0.8292	-0.38
0.8300	-0.39
0.8308	-0.39
0.8317	-0.39
0.8325	-0.40
0.8333	-0.40
0.8342	-0.42
0.8350	-0.44
0.8358	-0.46
0.8367	-0.48
0.8375	-0.51
0.8383	-0.54
0.8392	-0.57
0.8400	-0.60
0.8408	-0.62
0.8417	-0.64
0.8425	-0.65
0.8433	-0.66
0.8442	-0.67
0.8450	-0.69
0.8458	-0.70
0.8467	-0.71
0.8475	-0.73
0.8483	-0.75
0.8492	-0.77
0.8500	-0.78
0.8508	-0.80
0.8517	-0.81
0.8525	-0.82
0.8533	-0.84
0.8542	-0.85
0.8550	-0.87
0.8558	-0.89
0.8567	-0.91
0.8575	-0.92
0.8583	-0.94
0.8592	-0.96
0.8600	-0.98
0.8608	-1.00
0.8617	-1.03
0.8625	-1.06
0.8633	-1.08
0.8642	-1.10
0.8650	-1.13
0.8658	-1.16
0.8667	-1.18
0.8675	-1.20
0.8683	-1.22
0.8692	-1.24
0.8700	-1.25
0.8708	-1.26
0.8717	-1.27
0.8725	-1.29
0.8733	-1.30
0.8742	-1.31
0.8750	-1.33
0.8758	-1.35
0.8767	-1.37
0.8775	-1.38
0.8783	-1.40
0.8792	-1.42
0.8800	-1.44
0.8808	-1.45
0.8817	-1.47
0.8825	-1.48
0.8833	-1.49
0.8842	-1.51
0.8850	-1.53
0.8858	-1.55
0.8867	-1.57
0.8875	-1.60
0.8883	-1.62
0.8892	-1.64
0.8900	-1.66
0.8908	-1.67
0.8917	-1.68
0.8925	-1.69
0.8933	-1.71
0.8942	-1.73
0.8950	-1.74
0.8958	-1.76
0.8967	-1.76
0.8975	-1.77
0.8983	-1.79
0.8992	-1.81
0.9000	-1.84
0.9008	-1.87
0.9017	-1.90
0.9025	-1.92
0.9033	-1.94
0.9042	-1.95
0.9050	-1.95
0.9058	-1.96
0.9067	-1.97
0.9075	-1.99
0.9083	-2.00
0.9092	-2.02
0.9100	-2.03
0.9108	-2.05
0.9117	-2.06
0.9125	-2.07
0.9133	-2.08
0.9142	-2.08
0.9150	-2.08
0.9158	-2.09
0.9167	-2.10
0.9175	-2.10
0.9183	-2.11
0.9192	-2.11
0.9200	-2.12
0.9208	-2.12
0.9217	-2.12
0.9225	-2.12
0.9233	-2.12
0.9242	-2.13
0.9250	-2.14
0.9258	-2.14
0.9267	-2.15
0.9275	-2.16
0.9283	-2.17
0.9292	-2.19
0.9300	-2.21
0.9308	-2.22
0.9317	-2.23
0.9325	-2.24
0.9333	-2.24
0.9342	-2.25
0.9350	-2.25
0.9358	-2.26
0.9367	-2.26
0.9375	-2.27
0.9383	-2.27
0.9392	-2.28
0.9400	-2.30
0.9408	-2.32
0.9417	-2.34
0.9425	-2.35
0.9433	-2.37
0.9442	-2.38
0.9450	-2.38
0.9458	-2.38
0.9467	-2.38
0.9475	-2.39
0.9483	-2.40
0.9492	-2.41
0.9500	-2.41
0.9508	-2.42
0.9517	-2.42
0.9525	-2.42
0.9533	-2.43
0.9542	-2.44
0.9550	-2.45
0.9558	-2.46
0.9567	-2.47
0.9575	-2.48
0.9583	-2.49
0.9592	-2.49
0.9600	-2.48
0.9608	-2.48
0.9617	-2.47
0.9625	-2.47
0.9633	-2.45
0.9642	-2.43
0.9650	-2.41
0.9658	-2.37
0.9667	-2.29
0.9675	-2.16
0.9683	-1.94
0.9692	-1.60
0.9700	-1.09
0.9708	-0.34
0.9717	0.72
0.9725	2.18
0.9733	4.16
0.9742	6.76
0.9750	10.10
0.9758	14.27
0.9767	19.38
0.9775	25.49
0.9783	32.63
0.9792	40.79
0.9800	49.91
0.9808	59.93
0.9817	70.71
0.9825	82.09
0.9833	93.89
0.9842	105.90
0.9850	117.93
0.9858	129.74
0.9867	141.13
0.9875	151.90
0.9883	161.87
0.9892	170.86
0.9900	178.73
0.9908	185.35
0.9917	190.63
0.9925	194.48
0.9933	196.84
0.9942	197.69
0.9950	197.04
0.9958	194.94
0.9967	191.44
0.9975	186.67
0.9983	180.74
0.9992	173.82
1.0000	166.08
1.0008	157.68
1.0017	148.82
1.0025	139.67
1.0033	130.42
1.0042	121.19
1.0050	112.13
1.0058	103.35
1.0067	94.94
1.0075	86.94
1.0083	79.41
1.0092	72.38
1.0100	65.86
1.0108	59.85
1.0117	54.35
1.0125	49.37
1.0133	44.93
1.0142	41.04
1.0150	37.76
1.0158	35.15
1.0167	33.33
1.0175	32.41
1.0183	32.51
1.0192	33.78
1.0200	36.36
1.0208	40.35
1.0217	45.82
1.0225	52.81
1.0233	61.30
1.0242	71.22
1.0250	82.43
1.0258	94.72
1.0267	107.89
1.0275	121.65
1.0283	135.72
1.0292	149.78
1.0300	163.53
1.0308	176.62
1.0317	188.74
1.0325	199.55
1.0333	208.77
1.0342	216.15
1.0350	221.48
1.0358	224.66
1.0367	225.64
1.0375	224.48
1.0383	221.27
1.0392	216.20
1.0400	209.48
1.0408	201.37
1.0417	192.16
1.0425	182.10
1.0433	171.48
1.0442	160.55
1.0450	149.54
1.0458	138.62
1.0467	127.95
1.0475	117.66
1.0483	107.82
1.0492	98.50
1.0500	89.72
1.0508	81.51
1.0517	73.87
1.0525	66.78
1.0533	60.23
1.0542	54.21
1.0550	48.69
1.0558	43.64
1.0567	39.04
1.0575	34.87
1.0583	31.09
1.0592	27.66
1.0600	24.57
1.0608	21.79
1.0617	19.28
1.0625	17.03
1.0633	15.00
1.0642	13.20
1.0650	11.58
1.0658	10.15
1.0667	8.88
1.0675	7.77
1.0683	6.78
1.0692	5.92
1.0700	5.15
1.0708	4.47
1.0717	3.86
1.0725	3.33
1.0733	2.85
1.0742	2.44
1.0750	2.08
1.0758	1.78
1.0767	1.51
1.0775	1.27
1.0783	1.06
1.0792	0.88
1.0800	0.71
1.0808	0.56
1.0817	0.42
1.0825	0.30
1.0833	0.19
1.0842	0.09
1.0850	-0.00
1.0858	-0.09
1.0867	-0.17
1.0875	-0.25
1.0883	-0.31
1.0892	-0.37
1.0900	-0.41
1.0908	-0.43
1.0917	-0.45
1.0925	-0.47
1.0933	-0.49
1.0942	-0.51
1.0950	-0.52
1.0958	-0.53
1.0967	-0.55
1.0975	-0.56
1.0983	-0.56
1.0992	-0.56
1.1000	-0.57
1.1008	-0.58
1.1017	-0.59
1.1025	-0.59
1.1033	-0.59
1.1042	-0.59
1.1050	-0.60
1.1058	-0.61
1.1067	-0.63
1.1075	-0.65
1.1083	-0.67
1.1092	-0.70
1.1100	-0.74
1.1108	-0.77
1.1117	-0.79
1.1125	-0.81
1.1133	-0.84
1.1142	-0.87
1.1150	-0.91
1.1158	-0.93
1.1167	-0.96
1.1175	-0.99
1.1183	-1.01
1.1192	-1.03
1.1200	-1.05
1.1208	-1.07
1.1217	-1.09
1.1225	-1.12
1.1233	-1.13
1.1242	-1.13
1.1250	-1.12
1.1258	-1.12
1.1267	-1.11
1.1275	-1.09
1.1283	-1.08
1.1292	-1.07
1.1300	-1.05
1.1308	-1.03
1.1317	-1.00
1.1325	-0.97
1.1333	-0.93
1.1342	-0.88
1.1350	-0.84
1.1358	-0.79
1.1367	-0.76
1.1375	-0.72
1.1383	-0.69
1.1392	-0.68
1.1400	-0.66
1.1408	-0.64
1.1417	-0.63
1.1425	-0.62
1.1433	-0.60
1.1442	-0.58
1.1450	-0.54
1.1458	-0.44
1.1467	-0.24
1.1475	0.12
1.1483	0.74
1.1492	1.76
1.1500	3.36
1.1508	5.77
1.1517	9.23
1.1525	13.99
1.1533	20.31
1.1542	28.39
1.1550	38.35
1.1558	50.23
1.1567	63.90
1.1575	79.12
1.1583	95.50
1.1592	112.53
1.1600	129.61
1.1608	146.10
1.1617	161.39
1.1625	174.90
1.1633	186.16
1.1642	194.87
1.1650	200.84
1.1658	204.06
1.1667	204.63
1.1675	202.77
1.1683	198.79
1.1692	193.03
1.1700	185.83
1.1708	177.55
1.1717	168.50
1.1725	158.97
1.1733	149.18
1.1742	139.31
1.1750	129.49
1.1758	119.85
1.1767	110.46
1.1775	101.35
1.1783	92.59
1.1792	84.19
1.1800	76.20
1.1808	68.66
1.1817	61.58
1.1825	54.98
1.1833	48.89
1.1842	43.30
1.1850	38.20
1.1858	33.58
1.1867	29.41
1.1875	25.68
1.1883	22.36
1.1892	19.43
1.1900	16.86
1.1908	14.61
1.1917	12.66
1.1925	10.97
1.1933	9.51
1.1942	8.26
1.1950	7.18
1.1958	6.26
1.1967	5.48
1.1975	4.81
1.1983	4.24
1.1992	3.76
1.2000	3.34
1.2008	2.98
1.2017	2.67
1.2025	2.42
1.2033	2.19
1.2042	2.00
1.2050	1.83
1.2058	1.69
1.2067	1.56
1.2075	1.44
1.2083	1.32
1.2092	1.21
1.2100	1.12
1.2108	1.03
1.2117	0.95
1.2125	0.87
1.2133	0.81
1.2142	0.74
1.2150	0.68
1.2158	0.63
1.2167	0.57
1.2175	0.52
1.2183	0.47
1.2192	0.43
1.2200	0.41
1.2208	0.40
1.2217	0.41
1.2225	0.44
1.2233	0.50
1.2242	0.57
1.2250	0.66
1.2258	0.75
1.2267	0.86
1.2275	0.97
1.2283	1.09
1.2292	1.19
1.2300	1.28
1.2308	1.36
1.2317	1.42
1.2325	1.47
1.2333	1.49
1.2342	1.50
1.2350	1.48
1.2358	1.44
1.2367	1.39
1.2375	1.32
1.2383	1.25
1.2392	1.17
1.2400	1.09
1.2408	1.01
1.2417	0.94
1.2425	0.86
1.2433	0.77
1.2442	0.69
1.2450	0.60
1.2458	0.51
1.2467	0.42
1.2475	0.35
1.2483	0.27
1.2492	0.20
1.2500	0.14
1.2508	0.08
1.2517	0.03
1.2525	-0.03
1.2533	-0.07
1.2542	-0.10
1.2550	-0.13
1.2558	-0.17
1.2567	-0.20
1.2575	-0.23
1.2583	-0.26
1.2592	-0.28
1.2600	-0.29
1.2608	-0.30
1.2617	-0.29
1.2625	-0.28
1.2633	-0.27
1.2642	-0.26
1.2650	-0.26
1.2658	-0.27
1.2667	-0.27
1.2675	-0.28
1.2683	-0.29
1.2692	-0.29
1.2700	-0.30
1.2708	-0.30
1.2717	-0.30
1.2725	-0.30
1.2733	-0.30
1.2742	-0.30
1.2750	-0.30
1.2758	-0.29
1.2767	-0.28
1.2775	-0.27
1.2783	-0.24
1.2792	-0.20
1.2800	-0.14
1.2808	-0.05
1.2817	0.06
1.2825	0.19
1.2833	0.34
1.2842	0.49
1.2850	0.66
1.2858	0.81
1.2867	0.96
1.2875	1.08
1.2883	1.20
1.2892	1.29
1.2900	1.35
1.2908	1.39
1.2917	1.40
1.2925	1.39
1.2933	1.36
1.2942	1.31
1.2950	1.26
1.2958	1.21
1.2967	1.15
1.2975	1.09
1.2983	1.03
1.2992	0.97
1.3000	0.91
1.3008	0.85
1.3017	0.79
1.3025	0.72
1.3033	0.67
1.3042	0.63
1.3050	0.60
1.3058	0.60
1.3067	0.66
1.3075	0.85
1.3083	1.27
1.3092	2.08
1.3100	3.55
1.3108	6.06
1.3117	10.06
1.3125	16.11
1.3133	24.75
1.3142	36.48
1.3150	51.65
1.3158	70.33
1.3167	92.28
1.3175	116.90
1.3183	143.29
1.3192	170.30
1.3200	196.60
1.3208	220.90
1.3217	242.03
1.3225	259.09
1.3233	271.51
1.3242	279.05
1.3250	281.86
1.3258	280.36
1.3267	275.19
1.3275	267.10
1.3283	256.85
1.3292	245.16
1.3300	232.65
1.3308	219.79
1.3317	206.93
1.3325	194.25
1.3333	181.86
1.3342	169.80
1.3350	158.04
1.3358	146.57
1.3367	135.37
1.3375	124.43
1.3383	113.76
1.3392	103.40
1.3400	93.40
1.3408	83.84
1.3417	74.79
1.3425	66.30
1.3433	58.44
1.3442	51.23
1.3450	44.69
1.3458	38.83
1.3467	33.60
1.3475	29.00
1.3483	24.98
1.3492	21.50
1.3500	18.50
1.3508	15.94
1.3517	13.75
1.3525	11.91
1.3533	10.34
1.3542	9.03
1.3550	7.92
1.3558	6.99
1.3567	6.22
1.3575	5.56
1.3583	5.00
1.3592	4.53
1.3600	4.13
1.3608	3.80
1.3617	3.50
1.3625	3.26
1.3633	3.05
1.3642	2.88
1.3650	2.72
1.3658	2.59
1.3667	2.47
1.3675	2.38
1.3683	2.29
1.3692	2.21
1.3700	2.15
1.3708	2.10
1.3717	2.06
1.3725	2.02
1.3733	1.99
1.3742	1.96
1.3750	1.92
1.3758	1.88
1.3767	1.85
1.3775	1.82
1.3783	1.80
1.3792	1.79
1.3800	1.78
1.3808	1.77
1.3817	1.77
1.3825	1.76
1.3833	1.75
1.3842	1.74
1.3850	1.74
1.3858	1.74
1.3867	1.74
1.3875	1.75
1.3883	1.76
1.3892	1.78
1.3900	1.79
1.3908	1.81
1.3917	1.83
1.3925	1.84
1.3933	1.86
1.3942	1.88
1.3950	1.89
1.3958	1.89
1.3967	1.88
1.3975	1.86
1.3983	1.83
1.3992	1.80
1.4000	1.77
1.4008	1.76
1.4017	1.76
1.4025	1.76
1.4033	1.77
1.4042	1.79
1.4050	1.80
1.4058	1.81
1.4067	1.83
1.4075	1.86
1.4083	1.88
1.4092	1.90
1.4100	1.92
1.4108	1.93
1.4117	1.94
1.4125	1.94
1.4133	1.93
1.4142	1.91
1.4150	1.89
1.4158	1.87
1.4167	1.85
1.4175	1.83
1.4183	1.82
1.4192	1.80
1.4200	1.78
1.4208	1.76
1.4217	1.72
1.4225	1.68
1.4233	1.64
1.4242	1.60
1.4250	1.57
1.4258	1.54
1.4267	1.51
1.4275	1.49
1.4283	1.48
1.4292	1.46
1.4300	1.44
1.4308	1.42
1.4317	1.41
1.4325	1.42
1.4333	1.43
1.4342	1.44
1.4350	1.47
1.4358	1.50
1.4367	1.54
1.4375	1.57
1.4383	1.59
1.4392	1.61
1.4400	1.62
1.4408	1.62
1.4417	1.61
1.4425	1.60
1.4433	1.59
1.4442	1.58
1.4450	1.59
1.4458	1.59
1.4467	1.60
1.4475	1.61
1.4483	1.61
1.4492	1.61
1.4500	1.61
1.4508	1.60
1.4517	1.60
1.4525	1.61
1.4533	1.61
1.4542	1.60
1.4550	1.60
1.4558	1.60
1.4567	1.59
1.4575	1.59
1.4583	1.60
1.4592	1.61
1.4600	1.62
1.4608	1.64
1.4617	1.65
1.4625	1.66
1.4633	1.67
1.4642	1.67
1.4650	1.68
1.4667	1.68
1.4675	1.68
1.4683	1.69
1.4692	1.68
1.4700	1.68
1.4708	1.69
1.4717	1.71
1.4725	1.73
1.4733	1.75
1.4742	1.76
1.4750	1.78
1.4758	1.80
1.4767	1.80
1.4775	1.80
1.4783	1.80
1.4792	1.80
1.4800	1.80
1.4808	1.80
1.4817	1.79
1.4825	1.79
1.4833	1.80
1.4842	1.81
1.4850	1.83
1.4858	1.84
1.4867	1.86
1.4875	1.87
1.4883	1.89
1.4892	1.90
1.4900	1.91
1.4908	1.93
1.4917	1.94
1.4925	1.95
1.4933	1.95
1.4942	1.96
1.4950	1.96
1.4958	1.97
1.4967	1.98
1.4975	1.99
1.4983	1.99
1.4992	2.00
1.5000	2.01
1.5008	2.02
1.5017	2.03
1.5025	2.04
1.5033	2.05
1.5042	2.05
1.5050	2.05
1.5058	2.05
1.5067	2.05
1.5075	2.06
1.5083	2.07
1.5092	2.09
1.5100	2.11
1.5108	2.12
1.5117	2.13
1.5125	2.13
1.5133	2.14
1.5142	2.14
1.5150	2.16
1.5158	2.17
1.5167	2.18
1.5175	2.19
1.5183	2.19
1.5192	2.20
1.5200	2.20
1.5208	2.21
1.5217	2.22
1.5225	2.23
1.5233	2.23
1.5242	2.24
1.5250	2.24
1.5258	2.24
1.5267	2.24
1.5275	2.24
1.5283	2.25
1.5292	2.27
1.5300	2.28
1.5308	2.28
1.5317	2.29
1.5325	2.30
1.5333	2.31
1.5342	2.32
1.5350	2.33
1.5358	2.35
1.5367	2.37
1.5375	2.38
1.5383	2.40
1.5392	2.42
1.5400	2.44
1.5408	2.46
1.5417	2.48
1.5425	2.49
1.5433	2.51
1.5442	2.51
1.5450	2.52
1.5458	2.54
1.5467	2.55
1.5475	2.56
1.5483	2.57
1.5492	2.59
1.5500	2.60
1.5508	2.60
1.5517	2.61
1.5525	2.62
1.5533	2.63
1.5542	2.65
1.5550	2.66
1.5558	2.68
1.5567	2.69
1.5575	2.70
1.5583	2.69
1.5592	2.69
1.5600	2.68
1.5608	2.68
1.5617	2.67
1.5625	2.67
1.5633	2.66
1.5642	2.66
1.5650	2.66
1.5658	2.66
1.5667	2.66
1.5675	2.66
1.5683	2.67
1.5692	2.69
1.5700	2.71
1.5708	2.72
1.5717	2.73
1.5725	2.74
1.5733	2.74
1.5742	2.75
1.5750	2.76
1.5758	2.78
1.5767	2.79
1.5775	2.81
1.5783	2.83
1.5792	2.83
1.5800	2.83
1.5808	2.84
1.5817	2.84
1.5825	2.84
1.5833	2.83
1.5842	2.83
1.5850	2.83
1.5858	2.83
1.5867	2.84
1.5875	2.84
1.5883	2.84
1.5892	2.85
1.5900	2.85
1.5908	2.85
1.5917	2.86
1.5925	2.88
1.5933	2.89
1.5942	2.91
1.5950	2.94
1.5958	2.96
1.5967	2.99
1.5975	3.00
1.5983	3.01
1.5992	3.02
1.6000	3.03
1.6008	3.03
1.6017	3.03
1.6025	3.05
1.6033	3.06
1.6042	3.08
1.6050	3.10
1.6058	3.11
1.6067	3.13
1.6075	3.14
1.6083	3.15
1.6092	3.16
1.6100	3.17
1.6108	3.18
1.6117	3.19
1.6125	3.21
1.6133	3.23
1.6142	3.26
1.6150	3.29
1.6158	3.32
1.6167	3.34
1.6175	3.36
1.6183	3.37
1.6192	3.38
1.6200	3.38
1.6208	3.39
1.6217	3.41
1.6225	3.44
1.6233	3.47
1.6242	3.50
1.6250	3.52
1.6258	3.55
1.6267	3.57
1.6275	3.59
1.6283	3.61
1.6292	3.64
1.6300	3.65
1.6308	3.67
1.6317	3.67
1.6325	3.68
1.6333	3.68
1.6342	3.69
1.6350	3.70
1.6358	3.72
1.6367	3.74
1.6375	3.76
1.6383	3.77
1.6392	3.78
1.6400	3.79
1.6408	3.80
1.6417	3.81
1.6425	3.81
1.6433	3.82
1.6442	3.83
1.6450	3.83
1.6458	3.84
1.6467	3.84
1.6475	3.84
1.6483	3.85
1.6492	3.86
1.6500	3.88
1.6508	3.90
1.6517	3.91
1.6525	3.93
1.6533	3.94
1.6542	3.94
1.6550	3.94
1.6558	3.94
1.6567	3.94
1.6575	3.95
1.6583	3.96
1.6592	3.97
1.6600	3.98
1.6608	4.00
1.6617	4.01
1.6625	4.03
1.6633	4.04
1.6642	4.05
1.6650	4.06
1.6658	4.08
1.6667	4.09
1.6675	4.11
1.6683	4.13
1.6692	4.15
1.6700	4.17
1.6708	4.18
1.6717	4.20
1.6725	4.22
1.6733	4.24
1.6742	4.27
1.6750	4.31
1.6758	4.35
1.6767	4.41
1.6775	4.46
1.6783	4.52
1.6792	4.59
1.6800	4.65
1.6808	4.72
1.6817	4.79
1.6825	4.86
1.6833	4.93
1.6842	4.99
1.6850	5.05
1.6858	5.10
1.6867	5.13
1.6875	5.16
1.6883	5.18
1.6892	5.20
1.6900	5.23
1.6908	5.27
1.6917	5.33
1.6925	5.41
1.6933	5.49
1.6942	5.59
1.6950	5.68
1.6958	5.76
1.6967	5.83
1.6975	5.88
1.6983	5.91
1.6992	5.92
1.7000	5.92
1.7008	5.90
1.7017	5.86
1.7025	5.82
1.7033	5.76
1.7042	5.71
1.7050	5.66
1.7058	5.61
1.7067	5.57
1.7075	5.54
1.7083	5.52
1.7092	5.51
1.7100	5.52
1.7108	5.53
1.7117	5.56
1.7125	5.61
1.7133	5.68
1.7142	5.75
1.7150	5.83
1.7158	5.92
1.7167	6.02
1.7175	6.13
1.7183	6.24
1.7192	6.35
1.7200	6.45
1.7208	6.53
1.7217	6.58
1.7225	6.60
1.7233	6.60
1.7242	6.59
1.7250	6.56
1.7258	6.53
1.7267	6.49
1.7275	6.46
1.7283	6.42
1.7292	6.38
1.7300	6.33
1.7308	6.27
1.7317	6.21
1.7325	6.14
1.7333	6.07
1.7342	6.01
1.7350	5.96
1.7358	5.92
1.7367	5.88
1.7375	5.85
1.7383	5.82
1.7392	5.79
1.7400	5.76
1.7408	5.73
1.7417	5.71
1.7425	5.69
1.7433	5.67
1.7442	5.66
1.7450	5.65
1.7458	5.64
1.7467	5.64
1.7475	5.65
1.7483	5.67
1.7492	5.69
1.7500	5.73
1.7508	5.76
1.7517	5.80
1.7525	5.83
1.7533	5.85
1.7542	5.87
1.7550	5.89
1.7558	5.92
1.7567	5.94
1.7575	5.97
1.7583	5.99
1.7592	6.02
1.7600	6.04
1.7608	6.06
1.7617	6.07
1.7625	6.09
1.7633	6.10
1.7642	6.11
1.7650	6.13
1.7658	6.16
1.7667	6.18
1.7675	6.20
1.7683	6.21
1.7692	6.22
1.7700	6.23
1.7708	6.24
1.7717	6.26
1.7725	6.29
1.7733	6.32
1.7742	6.35
1.7750	6.37
1.7758	6.40
1.7767	6.42
1.7775	6.44
1.7783	6.46
1.7792	6.48
1.7800	6.48
1.7808	6.49
1.7817	6.50
1.7825	6.52
1.7833	6.53
1.7842	6.55
1.7850	6.56
1.7858	6.57
1.7867	6.57
1.7875	6.57
1.7883	6.57
1.7892	6.58
1.7900	6.59
1.7908	6.60
1.7917	6.62
1.7925	6.64
1.7933	6.65
1.7942	6.65
1.7950	6.66
1.7958	6.66
1.7967	6.68
1.7975	6.70
1.7983	6.73
1.7992	6.77
1.8000	6.82
1.8008	6.86
1.8017	6.90
1.8025	6.93
1.8033	6.96
1.8042	6.99
1.8050	7.02
1.8058	7.05
1.8067	7.08
1.8075	7.10
1.8083	7.13
1.8092	7.15
1.8100	7.16
1.8108	7.19
1.8117	7.22
1.8125	7.27
1.8133	7.32
1.8142	7.39
1.8150	7.46
1.8158	7.54
1.8167	7.61
1.8175	7.69
1.8183	7.75
1.8192	7.81
1.8200	7.87
1.8208	7.94
1.8217	8.00
1.8225	8.06
1.8233	8.14
1.8242	8.20
1.8250	8.27
1.8258	8.33
1.8267	8.39
1.8275	8.44
1.8283	8.50
1.8292	8.55
1.8300	8.59
1.8308	8.64
1.8317	8.68
1.8325	8.71
1.8333	8.74
1.8342	8.77
1.8350	8.79
1.8358	8.82
1.8367	8.85
1.8375	8.88
1.8383	8.91
1.8392	8.94
1.8400	8.96
1.8408	8.97
1.8417	9.00
1.8425	9.02
1.8433	9.05
1.8442	9.08
1.8450	9.11
1.8458	9.15
1.8467	9.19
1.8475	9.23
1.8483	9.28
1.8492	9.32
1.8500	9.36
1.8508	9.41
1.8517	9.44
1.8525	9.48
1.8533	9.50
1.8542	9.53
1.8550	9.54
1.8558	9.56
1.8567	9.58
1.8575	9.59
1.8583	9.61
1.8592	9.63
1.8600	9.65
1.8608	9.67
1.8617	9.68
1.8625	9.69
1.8633	9.70
1.8642	9.70
1.8650	9.71
1.8658	9.72
1.8667	9.73
1.8675	9.75
1.8683	9.78
1.8692	9.81
1.8700	9.85
1.8708	9.89
1.8717	9.95
1.8725	10.01
1.8733	10.10
1.8742	10.21
1.8750	10.34
1.8758	10.50
1.8767	10.68
1.8775	10.88
1.8783	11.10
1.8792	11.33
1.8800	11.56
1.8808	11.79
1.8817	12.01
1.8825	12.21
1.8833	12.38
1.8842	12.53
1.8850	12.64
1.8858	12.72
1.8867	12.77
1.8875	12.80
1.8883	12.79
1.8892	12.76
1.8900	12.71
1.8908	12.65
1.8917	12.57
1.8925	12.48
1.8933	12.40
1.8942	12.30
1.8950	12.20
1.8958	12.11
1.8967	12.01
1.8975	11.92
1.8983	11.83
1.8992	11.74
1.9000	11.67
1.9008	11.60
1.9017	11.54
1.9025	11.47
1.9033	11.42
1.9042	11.37
1.9050	11.33
1.9058	11.30
1.9067	11.28
1.9075	11.26
1.9083	11.26
1.9092	11.26
1.9100	11.26
1.9108	11.27
1.9117	11.28
1.9125	11.29
1.9133	11.30
1.9142	11.31
1.9150	11.31
1.9158	11.31
1.9167	11.31
1.9175	11.31
1.9183	11.31
1.9192	11.31
1.9200	11.31
1.9208	11.31
1.9217	11.31
1.9225	11.32
1.9233	11.32
1.9242	11.33
1.9250	11.33
1.9258	11.32
1.9267	11.32
1.9275	11.32
1.9283	11.32
1.9292	11.33
1.9300	11.34
1.9308	11.36
1.9317	11.38
1.9325	11.40
1.9333	11.41
1.9342	11.42
1.9350	11.44
1.9358	11.46
1.9367	11.47
1.9375	11.48
1.9383	11.50
1.9392	11.52
1.9400	11.55
1.9408	11.58
1.9417	11.61
1.9425	11.64
1.9433	11.67
1.9442	11.69
1.9450	11.71
1.9458	11.73
1.9467	11.76
1.9475	11.80
1.9483	11.84
1.9492	11.87
1.9500	11.91
1.9508	11.94
1.9517	11.97
1.9525	12.00
1.9533	12.03
1.9542	12.06
1.9550	12.09
1.9558	12.13
1.9567	12.16
1.9575	12.21
1.9583	12.25
1.9592	12.31
1.9600	12.38
1.9608	12.46
1.9617	12.57
1.9625	12.68
1.9633	12.81
1.9642	12.95
1.9650	13.10
1.9658	13.27
1.9667	13.45
1.9675	13.64
1.9683	13.84
1.9692	14.04
1.9700	14.24
1.9708	14.44
1.9717	14.64
1.9725	14.83
1.9733	15.02
1.9742	15.19
1.9750	15.35
1.9758	15.47
1.9767	15.57
1.9775	15.63
1.9783	15.66
1.9792	15.67
1.9800	15.67
1.9808	15.64
1.9817	15.60
1.9825	15.55
1.9833	15.48
1.9842	15.39
1.9850	15.27
1.9858	15.14
1.9867	15.01
1.9875	14.87
1.9883	14.73
1.9892	14.60
1.9900	14.48
1.9908	14.36
1.9917	14.25
1.9925	14.14
1.9933	14.04
1.9942	13.94
1.9950	13.84
1.9958	13.75
1.9967	13.66
1.9975	13.59
1.9983	13.52
1.9992	13.47
2.0000	13.42
}
[PEAK]
{
Peak ID	3
Peak Ref	1
Time	0.994
Peak	0.962	1.018
Intensity	-2.475	-2.010
Height	199.90
AreaAbs	287.59
Area %BP	87.84
Area %Total	24.11
Width	0.056
[UVPEAKPURITY]
{
PurePeak	FALSE
Purity Factor	988.797	50 of 50 spectra exceed the calculated threshold limit.
Purity Threshold	999.898	Calculated with 50 of 50 spectra
Purity Reference	Peak start and end spectra (integrated) (0.962 / 1.018)
Purity Spectra	5	Selection automatic, 5
}
}
[PEAK]
{
Peak ID	4
Peak Ref	2
Time	1.037
Peak	1.018	1.124
Intensity	-2.010	-1.130
Height	227.50
AreaAbs	321.51
Area %BP	98.20
Area %Total	26.95
Width	0.106
[UVPEAKPURITY]
{
PurePeak	FALSE
Purity Factor	706.569	110 of 110 spectra exceed the calculated threshold limit.
Purity Threshold	999.708	Calculated with 110 of 110 spectra
Purity Reference	Peak start and end spectra (integrated) (1.018 / 1.124)
Purity Spectra	5	Selection automatic, 5
}
}
[PEAK]
{
Peak ID	5
Peak Ref	3
Time	1.166
Peak	1.124	1.272
Intensity	-1.130	-0.305
Height	205.59
AreaAbs	256.50
Area %BP	78.34
Area %Total	21.50
Width	0.148
[UVPEAKPURITY]
{
PurePeak	FALSE
Purity Factor	993.989	66 of 66 spectra exceed the calculated threshold limit.
Purity Threshold	999.725	Calculated with 66 of 66 spectra
Purity Reference	Peak start and end spectra (integrated) (1.124 / 1.273)
Purity Spectra	5	Selection automatic, 5
}
}
[PEAK]
{
Peak ID	6
Peak Ref	4
Time	1.325
Peak	1.277	1.385
Intensity	-0.283	1.737
Height	281.31
AreaAbs	327.40
Area %BP	100.00
Area %Total	27.44
Width	0.109
[UVPEAKPURITY]
{
PurePeak	FALSE
Purity Factor	998.076	62 of 62 spectra exceed the calculated threshold limit.
Purity Threshold	999.709	Calculated with 62 of 62 spectra
Purity Reference	Peak start and end spectra (integrated) (1.277 / 1.385)
Purity Spectra	5	Selection automatic, 5
}
}
}
[CHROMATOGRAM]
{
TraceNumber	2
Description	DAD1 B, 220nm(+/-4) NoRef
Type	EWC
Range	220,216:224
ProcDesc
MaxIntensity	309.620380
Delay	0
Unscaled	TRUE
[TRACE]
{
0.0008	-0.53
0.0017	-0.55
0.0025	-0.56
0.0033	-0.57
0.0042	-0.57
0.0050	-0.57
0.0058	-0.56
0.0067	-0.54
0.0075	-0.53
0.0083	-0.53
0.0092	-0.54
0.0100	-0.55
0.0108	-0.57
0.0117	-0.59
0.0125	-0.62
0.0133	-0.64
0.0142	-0.65
0.0150	-0.66
0.0158	-0.66
0.0167	-0.67
0.0175	-0.68
0.0183	-0.68
0.0192	-0.69
0.0200	-0.70
0.0208	-0.71
0.0217	-0.72
0.0225	-0.74
0.0233	-0.75
0.0242	-0.77
0.0250	-0.79
0.0258	-0.80
0.0267	-0.81
0.0275	-0.81
0.0283	-0.81
0.0292	-0.80
0.0300	-0.80
0.0308	-0.81
0.0317	-0.81
0.0325	-0.82
0.0333	-0.83
0.0342	-0.85
0.0350	-0.86
0.0358	-0.87
0.0367	-0.88
0.0375	-0.89
0.0383	-0.90
0.0392	-0.90
0.0400	-0.90
0.0408	-0.89
0.0417	-0.88
0.0425	-0.87
0.0433	-0.87
0.0442	-0.86
0.0450	-0.85
0.0458	-0.84
0.0467	-0.82
0.0475	-0.80
0.0483	-0.79
0.0492	-0.77
0.0500	-0.76
0.0508	-0.76
0.0517	-0.74
0.0525	-0.72
0.0533	-0.70
0.0542	-0.67
0.0550	-0.63
0.0558	-0.59
0.0567	-0.55
0.0575	-0.52
0.0583	-0.48
0.0592	-0.44
0.0600	-0.39
0.0608	-0.35
0.0617	-0.29
0.0625	-0.24
0.0633	-0.18
0.0642	-0.13
0.0650	-0.07
0.0658	-0.01
0.0667	0.05
0.0675	0.12
0.0683	0.18
0.0692	0.24
0.0700	0.30
0.0708	0.35
0.0717	0.40
0.0725	0.45
0.0733	0.49
0.0742	0.54
0.0750	0.59
0.0758	0.64
0.0767	0.68
0.0775	0.72
0.0783	0.75
0.0792	0.78
0.0800	0.80
0.0808	0.80
0.0817	0.80
0.0825	0.78
0.0833	0.77
0.0842	0.76
0.0850	0.74
0.0858	0.72
0.0867	0.70
0.0875	0.69
0.0883	0.68
0.0892	0.65
0.0900	0.62
0.0908	0.60
0.0917	0.58
0.0925	0.55
0.0933	0.52
0.0942	0.49
0.0950	0.46
0.0958	0.43
0.0967	0.40
0.0975	0.37
0.0983	0.34
0.0992	0.31
0.1000	0.27
0.1008	0.24
0.1017	0.21
0.1025	0.19
0.1033	0.17
0.1042	0.14
0.1050	0.11
0.1058	0.08
0.1067	0.05
0.1075	0.02
0.1083	-0.01
0.1092	-0.04
0.1100	-0.07
0.1108	-0.10
0.1117	-0.14
0.1125	-0.18
0.1133	-0.22
0.1142	-0.26
0.1150	-0.30
0.1158	-0.33
0.1167	-0.36
0.1175	-0.38
0.1183	-0.39
0.1192	-0.40
0.1200	-0.40
0.1208	-0.41
0.1217	-0.41
0.1225	-0.42
0.1233	-0.43
0.1242	-0.43
0.1250	-0.44
0.1258	-0.46
0.1267	-0.47
0.1275	-0.49
0.1283	-0.50
0.1292	-0.51
0.1300	-0.52
0.1308	-0.52
0.1317	-0.53
0.1325	-0.54
0.1333	-0.55
0.1342	-0.56
0.1350	-0.58
0.1358	-0.59
0.1367	-0.61
0.1375	-0.62
0.1383	-0.61
0.1392	-0.61
0.1400	-0.60
0.1408	-0.60
0.1417	-0.61
0.1425	-0.63
0.1433	-0.65
0.1442	-0.66
0.1450	-0.68
0.1458	-0.70
0.1467	-0.72
0.1475	-0.73
0.1483	-0.74
0.1492	-0.74
0.1500	-0.74
0.1508	-0.74
0.1517	-0.74
0.1525	-0.75
0.1533	-0.76
0.1542	-0.78
0.1550	-0.79
0.1558	-0.80
0.1567	-0.80
0.1575	-0.80
0.1583	-0.80
0.1592	-0.81
0.1600	-0.82
0.1608	-0.83
0.1617	-0.85
0.1625	-0.87
0.1633	-0.88
0.1642	-0.88
0.1650	-0.89
0.1658	-0.89
0.1667	-0.88
0.1675	-0.88
0.1683	-0.87
0.1692	-0.87
0.1700	-0.87
0.1708	-0.87
0.1717	-0.87
0.1725	-0.86
0.1733	-0.86
0.1742	-0.85
0.1750	-0.84
0.1758	-0.82
0.1767	-0.79
0.1775	-0.76
0.1783	-0.73
0.1792	-0.70
0.1800	-0.65
0.1808	-0.61
0.1817	-0.56
0.1825	-0.51
0.1833	-0.46
0.1842	-0.42
0.1850	-0.37
0.1858	-0.33
0.1867	-0.28
0.1875	-0.23
0.1883	-0.17
0.1892	-0.11
0.1900	-0.05
0.1908	0.01
0.1917	0.07
0.1925	0.12
0.1933	0.16
0.1942	0.20
0.1950	0.24
0.1958	0.28
0.1967	0.33
0.1975	0.38
0.1983	0.43
0.1992	0.48
0.2000	0.53
0.2008	0.58
0.2017	0.62
0.2025	0.65
0.2033	0.67
0.2042	0.68
0.2050	0.68
0.2058	0.68
0.2067	0.67
0.2075	0.68
0.2083	0.69
0.2092	0.70
0.2100	0.71
0.2108	0.72
0.2117	0.73
0.2125	0.72
0.2133	0.71
0.2142	0.70
0.2150	0.70
0.2158	0.69
0.2167	0.68
0.2175	0.66
0.2183	0.65
0.2192	0.64
0.2200	0.62
0.2208	0.61
0.2217	0.59
0.2225	0.57
0.2233	0.55
0.2242	0.52
0.2250	0.48
0.2258	0.44
0.2267	0.41
0.2275	0.38
0.2283	0.35
0.2292	0.31
0.2300	0.28
0.2308	0.25
0.2317	0.22
0.2325	0.19
0.2333	0.17
0.2342	0.13
0.2350	0.10
0.2358	0.07
0.2367	0.03
0.2375	-0.02
0.2383	-0.07
0.2392	-0.10
0.2400	-0.13
0.2408	-0.15
0.2417	-0.17
0.2425	-0.18
0.2433	-0.20
0.2442	-0.21
0.2450	-0.23
0.2458	-0.24
0.2467	-0.25
0.2475	-0.25
0.2483	-0.25
0.2492	-0.26
0.2500	-0.26
0.2508	-0.28
0.2517	-0.30
0.2525	-0.31
0.2533	-0.32
0.2542	-0.34
0.2550	-0.36
0.2558	-0.38
0.2567	-0.40
0.2575	-0.43
0.2583	-0.46
0.2592	-0.49
0.2600	-0.50
0.2608	-0.51
0.2617	-0.52
0.2625	-0.53
0.2633	-0.54
0.2642	-0.56
0.2650	-0.58
0.2658	-0.60
0.2667	-0.62
0.2675	-0.64
0.2683	-0.66
0.2692	-0.67
0.2700	-0.67
0.2708	-0.68
0.2717	-0.69
0.2725	-0.70
0.2733	-0.71
0.2742	-0.72
0.2750	-0.73
0.2758	-0.74
0.2767	-0.74
0.2775	-0.73
0.2783	-0.71
0.2792	-0.68
0.2800	-0.63
0.2808	-0.57
0.2817	-0.48
0.2825	-0.36
0.2833	-0.19
0.2842	0.02
0.2850	0.28
0.2858	0.59
0.2867	0.94
0.2875	1.33
0.2883	1.74
0.2892	2.18
0.2900	2.62
0.2908	3.06
0.2917	3.47
0.2925	3.85
0.2933	4.19
0.2942	4.48
0.2950	4.73
0.2958	4.92
0.2967	5.07
0.2975	5.18
0.2983	5.25
0.2992	5.29
0.3000	5.32
0.3008	5.39
0.3017	5.50
0.3025	5.63
0.3033	5.80
0.3042	6.04
0.3050	6.38
0.3058	6.85
0.3067	7.50
0.3075	8.38
0.3083	9.51
0.3092	10.86
0.3100	12.35
0.3108	13.82
0.3117	15.09
0.3125	15.93
0.3133	16.16
0.3142	15.65
0.3150	14.30
0.3158	12.09
0.3167	9.09
0.3175	5.50
0.3183	1.69
0.3192	-1.72
0.3200	-3.89
0.3208	-3.86
0.3217	-0.75
0.3225	5.87
0.3233	15.81
0.3242	28.38
0.3250	42.53
0.3258	57.14
0.3267	71.15
0.3275	83.90
0.3283	95.11
0.3292	104.83
0.3300	113.12
0.3308	119.99
0.3317	125.39
0.3325	129.25
0.3333	131.48
0.3342	131.99
0.3350	130.70
0.3358	127.56
0.3367	122.52
0.3375	115.56
0.3383	106.67
0.3392	95.91
0.3400	83.41
0.3408	69.41
0.3417	54.22
0.3425	38.24
0.3433	21.93
0.3442	5.73
0.3450	-9.93
0.3458	-24.68
0.3467	-38.25
0.3475	-50.46
0.3483	-61.25
0.3492	-70.65
0.3500	-78.69
0.3508	-85.46
0.3517	-91.05
0.3525	-95.55
0.3533	-99.07
0.3542	-101.69
0.3550	-103.54
0.3558	-104.75
0.3567	-105.43
0.3575	-105.70
0.3583	-105.63
0.3592	-105.29
0.3600	-104.73
0.3608	-103.99
0.3617	-103.09
0.3625	-102.05
0.3633	-100.89
0.3642	-99.62
0.3650	-98.26
0.3658	-96.81
0.3667	-95.29
0.3675	-93.69
0.3683	-92.01
0.3692	-90.27
0.3700	-88.45
0.3708	-86.56
0.3717	-84.59
0.3725	-82.54
0.3733	-80.42
0.3742	-78.20
0.3750	-75.88
0.3758	-73.45
0.3767	-70.91
0.3775	-68.25
0.3783	-65.45
0.3792	-62.49
0.3800	-59.34
0.3808	-55.95
0.3817	-52.22
0.3825	-48.04
0.3833	-43.25
0.3842	-37.69
0.3850	-31.19
0.3858	-23.65
0.3867	-15.05
0.3875	-5.48
0.3883	4.84
0.3892	15.54
0.3900	26.18
0.3908	36.22
0.3917	45.15
0.3925	52.53
0.3933	58.03
0.3942	61.48
0.3950	62.89
0.3958	62.38
0.3967	60.23
0.3975	56.74
0.3983	52.28
0.3992	47.20
0.4000	41.83
0.4008	36.48
0.4017	31.37
0.4025	26.71
0.4033	22.61
0.4042	19.12
0.4050	16.22
0.4058	13.88
0.4067	12.01
0.4075	10.54
0.4083	9.38
0.4092	8.46
0.4100	7.72
0.4108	7.12
0.4117	6.62
0.4125	6.20
0.4133	5.86
0.4142	5.56
0.4150	5.32
0.4158	5.11
0.4167	4.93
0.4175	4.78
0.4183	4.65
0.4192	4.54
0.4200	4.44
0.4208	4.35
0.4217	4.26
0.4225	4.17
0.4233	4.09
0.4242	4.00
0.4250	3.93
0.4258	3.87
0.4267	3.81
0.4275	3.75
0.4283	3.71
0.4292	3.66
0.4300	3.61
0.4308	3.56
0.4317	3.52
0.4325	3.47
0.4333	3.43
0.4342	3.37
0.4350	3.29
0.4358	3.21
0.4367	3.11
0.4375	2.99
0.4383	2.85
0.4392	2.71
0.4400	2.57
0.4408	2.44
0.4417	2.30
0.4425	2.17
0.4433	2.04
0.4442	1.92
0.4450	1.80
0.4458	1.69
0.4467	1.59
0.4475	1.50
0.4483	1.43
0.4492	1.36
0.4500	1.31
0.4508	1.27
0.4517	1.23
0.4525	1.19
0.4533	1.16
0.4542	1.14
0.4550	1.12
0.4558	1.10
0.4567	1.09
0.4575	1.08
0.4583	1.07
0.4592	1.07
0.4600	1.06
0.4608	1.06
0.4617	1.06
0.4625	1.06
0.4633	1.05
0.4642	1.04
0.4650	1.03
0.4658	1.01
0.4667	0.99
0.4675	0.98
0.4683	0.96
0.4692	0.96
0.4700	0.96
0.4708	0.95
0.4717	0.94
0.4725	0.92
0.4733	0.91
0.4742	0.90
0.4750	0.88
0.4758	0.87
0.4767	0.86
0.4775	0.85
0.4783	0.84
0.4792	0.83
0.4800	0.82
0.4808	0.81
0.4817	0.81
0.4825	0.79
0.4833	0.79
0.4842	0.78
0.4850	0.77
0.4858	0.75
0.4867	0.74
0.4875	0.74
0.4883	0.74
0.4892	0.73
0.4900	0.72
0.4908	0.72
0.4917	0.72
0.4925	0.72
0.4933	0.73
0.4942	0.74
0.4950	0.74
0.4958	0.73
0.4967	0.72
0.4975	0.71
0.4983	0.70
0.4992	0.69
0.5000	0.69
0.5008	0.70
0.5017	0.71
0.5025	0.73
0.5033	0.75
0.5042	0.78
0.5050	0.82
0.5058	0.85
0.5067	0.89
0.5075	0.93
0.5083	0.98
0.5092	1.03
0.5100	1.09
0.5108	1.15
0.5117	1.21
0.5125	1.27
0.5133	1.32
0.5142	1.37
0.5150	1.42
0.5158	1.46
0.5167	1.50
0.5175	1.54
0.5183	1.59
0.5192	1.64
0.5200	1.68
0.5208	1.71
0.5217	1.74
0.5225	1.76
0.5233	1.78
0.5242	1.80
0.5250	1.82
0.5258	1.85
0.5267	1.88
0.5275	1.89
0.5283	1.90
0.5292	1.91
0.5300	1.90
0.5308	1.90
0.5317	1.89
0.5325	1.88
0.5333	1.87
0.5342	1.86
0.5350	1.85
0.5358	1.83
0.5367	1.81
0.5375	1.78
0.5383	1.76
0.5392	1.74
0.5400	1.71
0.5408	1.68
0.5417	1.66
0.5425	1.64
0.5433	1.62
0.5442	1.60
0.5450	1.57
0.5458	1.55
0.5467	1.52
0.5475	1.49
0.5483	1.46
0.5492	1.42
0.5500	1.38
0.5508	1.35
0.5517	1.31
0.5525	1.27
0.5533	1.22
0.5542	1.18
0.5550	1.15
0.5558	1.11
0.5567	1.07
0.5575	1.04
0.5583	1.02
0.5592	1.00
0.5600	0.98
0.5608	0.95
0.5617	0.93
0.5625	0.91
0.5633	0.89
0.5642	0.87
0.5650	0.85
0.5658	0.84
0.5667	0.84
0.5675	0.82
0.5683	0.80
0.5692	0.78
0.5700	0.76
0.5708	0.76
0.5717	0.75
0.5725	0.75
0.5733	0.76
0.5742	0.76
0.5750	0.76
0.5758	0.75
0.5767	0.73
0.5775	0.70
0.5783	0.67
0.5792	0.64
0.5800	0.62
0.5808	0.61
0.5817	0.60
0.5825	0.60
0.5833	0.61
0.5842	0.61
0.5850	0.60
0.5858	0.58
0.5867	0.55
0.5875	0.53
0.5883	0.50
0.5892	0.49
0.5900	0.49
0.5908	0.50
0.5917	0.50
0.5925	0.50
0.5933	0.50
0.5942	0.49
0.5950	0.47
0.5958	0.45
0.5967	0.44
0.5975	0.43
0.5983	0.43
0.5992	0.43
0.6000	0.43
0.6008	0.44
0.6017	0.44
0.6025	0.44
0.6033	0.45
0.6042	0.46
0.6050	0.47
0.6058	0.48
0.6067	0.48
0.6075	0.49
0.6083	0.49
0.6092	0.48
0.6100	0.47
0.6108	0.47
0.6117	0.48
0.6125	0.49
0.6133	0.49
0.6142	0.50
0.6150	0.51
0.6158	0.52
0.6167	0.52
0.6175	0.51
0.6183	0.50
0.6192	0.48
0.6200	0.46
0.6208	0.45
0.6217	0.45
0.6225	0.45
0.6233	0.46
0.6242	0.46
0.6250	0.47
0.6258	0.47
0.6267	0.46
0.6275	0.44
0.6283	0.43
0.6292	0.42
0.6300	0.41
0.6308	0.41
0.6317	0.42
0.6325	0.43
0.6333	0.43
0.6342	0.43
0.6350	0.43
0.6358	0.43
0.6367	0.43
0.6375	0.44
0.6383	0.44
0.6392	0.45
0.6400	0.45
0.6408	0.44
0.6417	0.44
0.6425	0.43
0.6433	0.43
0.6442	0.43
0.6450	0.42
0.6458	0.42
0.6467	0.41
0.6475	0.40
0.6483	0.41
0.6492	0.41
0.6500	0.43
0.6508	0.44
0.6517	0.45
0.6525	0.46
0.6533	0.45
0.6542	0.43
0.6550	0.42
0.6558	0.41
0.6567	0.41
0.6575	0.40
0.6583	0.40
0.6592	0.41
0.6600	0.43
0.6608	0.43
0.6617	0.43
0.6625	0.43
0.6633	0.43
0.6642	0.42
0.6650	0.41
0.6658	0.40
0.6667	0.39
0.6675	0.40
0.6683	0.40
0.6692	0.41
0.6700	0.42
0.6708	0.43
0.6717	0.43
0.6725	0.43
0.6733	0.41
0.6742	0.40
0.6750	0.38
0.6758	0.36
0.6767	0.35
0.6775	0.35
0.6783	0.36
0.6792	0.37
0.6800	0.38
0.6808	0.39
0.6817	0.39
0.6825	0.39
0.6833	0.38
0.6842	0.36
0.6850	0.35
0.6858	0.33
0.6867	0.33
0.6875	0.32
0.6883	0.32
0.6892	0.32
0.6900	0.32
0.6908	0.33
0.6917	0.33
0.6925	0.34
0.6933	0.34
0.6942	0.35
0.6950	0.37
0.6958	0.38
0.6967	0.38
0.6975	0.37
0.6983	0.37
0.6992	0.36
0.7000	0.37
0.7008	0.37
0.7017	0.38
0.7025	0.39
0.7033	0.39
0.7042	0.39
0.7050	0.38
0.7058	0.38
0.7067	0.38
0.7075	0.39
0.7083	0.39
0.7092	0.41
0.7100	0.43
0.7108	0.45
0.7117	0.46
0.7125	0.48
0.7133	0.49
0.7142	0.50
0.7150	0.50
0.7158	0.51
0.7167	0.51
0.7175	0.51
0.7183	0.52
0.7192	0.54
0.7200	0.56
0.7208	0.59
0.7217	0.62
0.7225	0.65
0.7233	0.68
0.7242	0.72
0.7250	0.75
0.7258	0.78
0.7267	0.82
0.7275	0.86
0.7283	0.91
0.7292	0.95
0.7300	0.98
0.7308	1.01
0.7317	1.05
0.7325	1.09
0.7333	1.14
0.7342	1.19
0.7350	1.25
0.7358	1.31
0.7367	1.37
0.7375	1.42
0.7383	1.46
0.7392	1.50
0.7400	1.54
0.7408	1.58
0.7417	1.62
0.7425	1.66
0.7433	1.71
0.7442	1.74
0.7450	1.77
0.7458	1.81
0.7467	1.84
0.7475	1.88
0.7483	1.92
0.7492	1.96
0.7500	2.01
0.7508	2.06
0.7517	2.11
0.7525	2.16
0.7533	2.21
0.7542	2.26
0.7550	2.31
0.7558	2.37
0.7567	2.43
0.7575	2.50
0.7583	2.57
0.7592	2.66
0.7600	2.74
0.7608	2.82
0.7617	2.92
0.7625	3.02
0.7633	3.13
0.7642	3.25
0.7650	3.38
0.7658	3.50
0.7667	3.62
0.7675	3.74
0.7683	3.85
0.7692	3.96
0.7700	4.08
0.7708	4.19
0.7717	4.31
0.7725	4.42
0.7733	4.53
0.7742	4.63
0.7750	4.72
0.7758	4.81
0.7767	4.89
0.7775	4.97
0.7783	5.05
0.7792	5.13
0.7800	5.20
0.7808	5.26
0.7817	5.32
0.7825	5.38
0.7833	5.44
0.7842	5.49
0.7850	5.54
0.7858	5.60
0.7867	5.65
0.7875	5.71
0.7883	5.76
0.7892	5.80
0.7900	5.84
0.7908	5.87
0.7917	5.90
0.7925	5.92
0.7933	5.93
0.7942	5.95
0.7950	5.98
0.7958	6.01
0.7967	6.04
0.7975	6.07
0.7983	6.09
0.7992	6.12
0.8000	6.14
0.8008	6.14
0.8017	6.14
0.8025	6.14
0.8033	6.13
0.8042	6.13
0.8050	6.13
0.8058	6.13
0.8067	6.13
0.8075	6.14
0.8083	6.14
0.8092	6.13
0.8100	6.13
0.8108	6.13
0.8117	6.13
0.8125	6.15
0.8133	6.17
0.8142	6.19
0.8150	6.22
0.8158	6.25
0.8167	6.27
0.8175	6.30
0.8183	6.33
0.8192	6.36
0.8200	6.39
0.8208	6.43
0.8217	6.47
0.8225	6.51
0.8233	6.55
0.8242	6.59
0.8250	6.65
0.8258	6.70
0.8267	6.75
0.8275	6.81
0.8283	6.87
0.8292	6.94
0.8300	7.01
0.8308	7.08
0.8317	7.16
0.8325	7.25
0.8333	7.33
0.8342	7.41
0.8350	7.49
0.8358	7.58
0.8367	7.67
0.8375	7.77
0.8383	7.87
0.8392	7.97
0.8400	8.07
0.8408	8.16
0.8417	8.26
0.8425	8.36
0.8433	8.46
0.8442	8.57
0.8450	8.67
0.8458	8.77
0.8467	8.88
0.8475	8.98
0.8483	9.09
0.8492	9.20
0.8500	9.32
0.8508	9.43
0.8517	9.55
0.8525	9.66
0.8533	9.79
0.8542	9.91
0.8550	10.04
0.8558	10.18
0.8567	10.32
0.8575	10.46
0.8583	10.60
0.8592	10.75
0.8600	10.91
0.8608	11.06
0.8617	11.21
0.8625	11.36
0.8633	11.51
0.8642	11.66
0.8650	11.81
0.8658	11.96
0.8667	12.12
0.8675	12.28
0.8683	12.43
0.8692	12.59
0.8700	12.76
0.8708	12.92
0.8717	13.08
0.8725	13.26
0.8733	13.43
0.8742	13.59
0.8750	13.76
0.8758	13.92
0.8767	14.10
0.8775	14.28
0.8783	14.46
0.8792	14.65
0.8800	14.84
0.8808	15.03
0.8817	15.20
0.8825	15.37
0.8833	15.54
0.8842	15.71
0.8850	15.87
0.8858	16.03
0.8867	16.19
0.8875	16.35
0.8883	16.51
0.8892	16.68
0.8900	16.86
0.8908	17.04
0.8917	17.22
0.8925	17.40
0.8933	17.57
0.8942	17.73
0.8950	17.89
0.8958	18.06
0.8967	18.22
0.8975	18.40
0.8983	18.58
0.8992	18.74
0.9000	18.90
0.9008	19.04
0.9017	19.19
0.9025	19.33
0.9033	19.46
0.9042	19.61
0.9050	19.76
0.9058	19.92
0.9067	20.07
0.9075	20.23
0.9083	20.38
0.9092	20.53
0.9100	20.68
0.9108	20.83
0.9117	20.97
0.9125	21.12
0.9133	21.26
0.9142	21.41
0.9150	21.56
0.9158	21.71
0.9167	21.86
0.9175	22.01
0.9183	22.16
0.9192	22.30
0.9200	22.44
0.9208	22.57
0.9217	22.69
0.9225	22.81
0.9233	22.93
0.9242	23.06
0.9250	23.18
0.9258	23.32
0.9267	23.45
0.9275	23.59
0.9283	23.72
0.9292	23.85
0.9300	23.98
0.9308	24.09
0.9317	24.20
0.9325	24.31
0.9333	24.42
0.9342	24.52
0.9350	24.62
0.9358	24.72
0.9367	24.81
0.9375	24.90
0.9383	25.00
0.9392	25.10
0.9400	25.20
0.9408	25.30
0.9417	25.39
0.9425	25.49
0.9433	25.57
0.9442	25.64
0.9450	25.71
0.9458	25.78
0.9467	25.84
0.9475	25.91
0.9483	25.97
0.9492	26.02
0.9500	26.08
0.9508	26.13
0.9517	26.18
0.9525	26.23
0.9533	26.29
0.9542	26.35
0.9550	26.41
0.9558	26.47
0.9567	26.53
0.9575	26.58
0.9583	26.64
0.9592	26.70
0.9600	26.75
0.9608	26.79
0.9617	26.84
0.9625	26.88
0.9633	26.92
0.9642	26.97
0.9650	27.03
0.9658	27.12
0.9667	27.24
0.9675	27.41
0.9683	27.65
0.9692	27.99
0.9700	28.48
0.9708	29.17
0.9717	30.14
0.9725	31.48
0.9733	33.27
0.9742	35.63
0.9750	38.64
0.9758	42.40
0.9767	46.99
0.9775	52.48
0.9783	58.89
0.9792	66.23
0.9800	74.45
0.9808	83.48
0.9817	93.20
0.9825	103.48
0.9833	114.13
0.9842	124.96
0.9850	135.80
0.9858	146.46
0.9867	156.75
0.9875	166.49
0.9883	175.52
0.9892	183.68
0.9900	190.83
0.9908	196.84
0.9917	201.61
0.9925	205.07
0.9933	207.19
0.9942	207.95
0.9950	207.36
0.9958	205.47
0.9967	202.36
0.9975	198.09
0.9983	192.77
0.9992	186.55
1.0000	179.57
1.0008	172.00
1.0017	163.99
1.0025	155.72
1.0033	147.34
1.0042	138.99
1.0050	130.80
1.0058	122.87
1.0067	115.26
1.0075	108.03
1.0083	101.23
1.0092	94.87
1.0100	88.97
1.0108	83.52
1.0117	78.54
1.0125	74.00
1.0133	69.93
1.0142	66.33
1.0150	63.22
1.0158	60.66
1.0167	58.70
1.0175	57.43
1.0183	56.94
1.0192	57.31
1.0200	58.61
1.0208	60.93
1.0217	64.30
1.0225	68.75
1.0233	74.27
1.0242	80.79
1.0250	88.22
1.0258	96.44
1.0267	105.30
1.0275	114.60
1.0283	124.15
1.0292	133.73
1.0300	143.11
1.0308	152.06
1.0317	160.35
1.0325	167.75
1.0333	174.05
1.0342	179.10
1.0350	182.75
1.0358	184.92
1.0367	185.58
1.0375	184.75
1.0383	182.50
1.0392	178.97
1.0400	174.29
1.0408	168.66
1.0417	162.26
1.0425	155.28
1.0433	147.91
1.0442	140.33
1.0450	132.69
1.0458	125.11
1.0467	117.72
1.0475	110.58
1.0483	103.77
1.0492	97.32
1.0500	91.26
1.0508	85.58
1.0517	80.30
1.0525	75.40
1.0533	70.87
1.0542	66.71
1.0550	62.90
1.0558	59.42
1.0567	56.26
1.0575	53.39
1.0583	50.79
1.0592	48.45
1.0600	46.33
1.0608	44.42
1.0617	42.69
1.0625	41.14
1.0633	39.75
1.0642	38.51
1.0650	37.40
1.0658	36.42
1.0667	35.57
1.0675	34.81
1.0683	34.14
1.0692	33.55
1.0700	33.03
1.0708	32.58
1.0717	32.18
1.0725	31.83
1.0733	31.53
1.0742	31.25
1.0750	31.01
1.0758	30.79
1.0767	30.60
1.0775	30.43
1.0783	30.28
1.0792	30.16
1.0800	30.04
1.0808	29.94
1.0817	29.85
1.0825	29.76
1.0833	29.69
1.0842	29.62
1.0850	29.57
1.0858	29.52
1.0867	29.48
1.0875	29.45
1.0883	29.43
1.0892	29.42
1.0900	29.41
1.0908	29.40
1.0917	29.41
1.0925	29.42
1.0933	29.43
1.0942	29.43
1.0950	29.45
1.0958	29.47
1.0967	29.49
1.0975	29.52
1.0983	29.56
1.0992	29.60
1.1000	29.66
1.1008	29.72
1.1017	29.78
1.1025	29.84
1.1033	29.90
1.1042	29.97
1.1050	30.03
1.1058	30.09
1.1067	30.15
1.1075	30.21
1.1083	30.26
1.1092	30.31
1.1100	30.35
1.1108	30.40
1.1117	30.44
1.1125	30.47
1.1133	30.50
1.1142	30.52
1.1150	30.53
1.1158	30.52
1.1167	30.50
1.1175	30.48
1.1183	30.46
1.1192	30.44
1.1200	30.43
1.1208	30.41
1.1217	30.39
1.1225	30.36
1.1233	30.33
1.1242	30.29
1.1250	30.26
1.1258	30.23
1.1267	30.21
1.1275	30.19
1.1283	30.18
1.1292	30.19
1.1300	30.20
1.1308	30.23
1.1317	30.26
1.1325	30.30
1.1333	30.35
1.1342	30.40
1.1350	30.45
1.1358	30.51
1.1367	30.57
1.1375	30.62
1.1383	30.68
1.1392	30.73
1.1400	30.77
1.1408	30.81
1.1417	30.85
1.1425	30.88
1.1433	30.92
1.1442	30.98
1.1450	31.07
1.1458	31.24
1.1467	31.52
1.1475	32.03
1.1483	32.90
1.1492	34.30
1.1500	36.49
1.1508	39.76
1.1517	44.44
1.1525	50.87
1.1533	59.38
1.1542	70.24
1.1550	83.66
1.1558	99.65
1.1567	118.09
1.1575	138.64
1.1583	160.79
1.1592	183.84
1.1600	206.99
1.1608	229.39
1.1617	250.18
1.1625	268.60
1.1633	284.00
1.1642	295.95
1.1650	304.20
1.1658	308.71
1.1667	309.62
1.1675	307.21
1.1683	301.90
1.1692	294.17
1.1700	284.49
1.1708	273.34
1.1717	261.14
1.1725	248.28
1.1733	235.06
1.1742	221.72
1.1750	208.46
1.1758	195.43
1.1767	182.73
1.1775	170.45
1.1783	158.63
1.1792	147.33
1.1800	136.60
1.1808	126.45
1.1817	116.91
1.1825	108.02
1.1833	99.79
1.1842	92.23
1.1850	85.31
1.1858	79.05
1.1867	73.41
1.1875	68.37
1.1883	63.89
1.1892	59.94
1.1900	56.46
1.1908	53.42
1.1917	50.78
1.1925	48.49
1.1933	46.52
1.1942	44.83
1.1950	43.39
1.1958	42.16
1.1967	41.11
1.1975	40.22
1.1983	39.45
1.1992	38.79
1.2000	38.24
1.2008	37.76
1.2017	37.36
1.2025	37.01
1.2033	36.71
1.2042	36.44
1.2050	36.22
1.2058	36.02
1.2067	35.86
1.2075	35.73
1.2083	35.62
1.2092	35.54
1.2100	35.47
1.2108	35.41
1.2117	35.35
1.2125	35.30
1.2133	35.24
1.2142	35.17
1.2150	35.12
1.2158	35.07
1.2167	35.03
1.2175	34.99
1.2183	34.97
1.2192	34.96
1.2200	34.96
1.2208	34.98
1.2217	35.01
1.2225	35.07
1.2233	35.16
1.2242	35.27
1.2250	35.40
1.2258	35.53
1.2267	35.68
1.2275	35.82
1.2283	35.97
1.2292	36.10
1.2300	36.21
1.2308	36.31
1.2317	36.39
1.2325	36.45
1.2333	36.48
1.2342	36.49
1.2350	36.49
1.2358	36.47
1.2367	36.44
1.2375	36.40
1.2383	36.36
1.2392	36.32
1.2400	36.26
1.2408	36.20
1.2417	36.13
1.2425	36.06
1.2433	35.99
1.2442	35.91
1.2450	35.84
1.2458	35.78
1.2467	35.72
1.2475	35.67
1.2483	35.62
1.2492	35.57
1.2500	35.54
1.2508	35.50
1.2517	35.47
1.2525	35.45
1.2533	35.45
1.2542	35.46
1.2550	35.48
1.2558	35.51
1.2567	35.54
1.2575	35.58
1.2583	35.62
1.2592	35.68
1.2600	35.75
1.2608	35.83
1.2617	35.92
1.2625	36.02
1.2633	36.11
1.2642	36.20
1.2650	36.28
1.2658	36.35
1.2667	36.41
1.2675	36.46
1.2683	36.50
1.2692	36.54
1.2700	36.57
1.2708	36.59
1.2717	36.61
1.2725	36.63
1.2733	36.65
1.2742	36.66
1.2750	36.66
1.2758	36.66
1.2767	36.65
1.2775	36.66
1.2783	36.67
1.2792	36.70
1.2800	36.74
1.2808	36.80
1.2817	36.88
1.2825	36.97
1.2833	37.08
1.2842	37.20
1.2850	37.34
1.2858	37.48
1.2867	37.61
1.2875	37.75
1.2883	37.87
1.2892	37.99
1.2900	38.09
1.2908	38.17
1.2917	38.24
1.2925	38.29
1.2933	38.34
1.2942	38.38
1.2950	38.41
1.2958	38.43
1.2967	38.44
1.2975	38.43
1.2983	38.41
1.2992	38.39
1.3000	38.36
1.3008	38.34
1.3017	38.32
1.3025	38.32
1.3033	38.31
1.3042	38.32
1.3050	38.35
1.3058	38.39
1.3067	38.48
1.3075	38.69
1.3083	39.10
1.3092	39.87
1.3100	41.21
1.3108	43.45
1.3117	46.98
1.3125	52.28
1.3133	59.82
1.3142	70.05
1.3150	83.26
1.3158	99.52
1.3167	118.65
1.3175	140.12
1.3183	163.18
1.3192	186.80
1.3200	209.85
1.3208	231.19
1.3217	249.80
1.3225	264.87
1.3233	275.86
1.3242	282.58
1.3250	285.14
1.3258	283.90
1.3267	279.42
1.3275	272.35
1.3283	263.39
1.3292	253.15
1.3300	242.19
1.3308	230.93
1.3317	219.67
1.3325	208.60
1.3333	197.81
1.3342	187.33
1.3350	177.12
1.3358	167.17
1.3367	157.45
1.3375	147.96
1.3383	138.70
1.3392	129.72
1.3400	121.07
1.3408	112.81
1.3417	104.98
1.3425	97.65
1.3433	90.85
1.3442	84.62
1.3450	78.98
1.3458	73.92
1.3467	69.42
1.3475	65.45
1.3483	61.99
1.3492	58.99
1.3500	56.41
1.3508	54.21
1.3517	52.34
1.3525	50.75
1.3533	49.42
1.3542	48.31
1.3550	47.38
1.3558	46.61
1.3567	45.96
1.3575	45.42
1.3583	44.97
1.3592	44.59
1.3600	44.26
1.3608	43.98
1.3617	43.75
1.3625	43.55
1.3633	43.38
1.3642	43.23
1.3650	43.11
1.3658	43.00
1.3667	42.93
1.3675	42.87
1.3683	42.81
1.3692	42.76
1.3700	42.72
1.3708	42.67
1.3717	42.63
1.3725	42.60
1.3733	42.59
1.3742	42.59
1.3750	42.61
1.3758	42.64
1.3767	42.67
1.3775	42.71
1.3783	42.75
1.3792	42.80
1.3800	42.85
1.3808	42.91
1.3817	42.96
1.3825	43.02
1.3833	43.07
1.3842	43.13
1.3850	43.19
1.3858	43.25
1.3867	43.31
1.3875	43.38
1.3883	43.45
1.3892	43.51
1.3900	43.58
1.3908	43.66
1.3917	43.73
1.3925	43.80
1.3933	43.85
1.3942	43.90
1.3950	43.95
1.3958	43.99
1.3967	44.04
1.3975	44.07
1.3983	44.11
1.3992	44.16
1.4000	44.22
1.4008	44.27
1.4017	44.34
1.4025	44.43
1.4033	44.54
1.4042	44.67
1.4050	44.81
1.4058	44.94
1.4067	45.07
1.4075	45.19
1.4083	45.29
1.4092	45.37
1.4100	45.44
1.4108	45.50
1.4117	45.55
1.4125	45.59
1.4133	45.62
1.4142	45.64
1.4150	45.65
1.4158	45.65
1.4167	45.65
1.4175	45.64
1.4183	45.64
1.4192	45.64
1.4200	45.63
1.4208	45.63
1.4217	45.62
1.4225	45.62
1.4233	45.62
1.4242	45.62
1.4250	45.62
1.4258	45.62
1.4267	45.63
1.4275	45.64
1.4283	45.66
1.4292	45.69
1.4300	45.72
1.4308	45.78
1.4317	45.85
1.4325	45.93
1.4333	46.02
1.4342	46.13
1.4350	46.23
1.4358	46.33
1.4367	46.43
1.4375	46.53
1.4383	46.63
1.4392	46.72
1.4400	46.81
1.4408	46.89
1.4417	46.96
1.4425	47.02
1.4433	47.07
1.4442	47.11
1.4450	47.15
1.4458	47.19
1.4467	47.22
1.4475	47.27
1.4483	47.32
1.4492	47.36
1.4500	47.40
1.4508	47.44
1.4517	47.48
1.4525	47.53
1.4533	47.57
1.4542	47.62
1.4550	47.67
1.4558	47.74
1.4567	47.81
1.4575	47.87
1.4583	47.94
1.4592	48.01
1.4600	48.08
1.4608	48.15
1.4617	48.23
1.4625	48.30
1.4633	48.38
1.4642	48.45
1.4650	48.52
1.4658	48.59
1.4667	48.65
1.4675	48.72
1.4683	48.79
1.4692	48.86
1.4700	48.93
1.4708	49.00
1.4717	49.08
1.4725	49.16
1.4733	49.23
1.4742	49.30
1.4750	49.38
1.4758	49.45
1.4767	49.54
1.4775	49.62
1.4783	49.71
1.4792	49.79
1.4800	49.87
1.4808	49.95
1.4817	50.03
1.4825	50.11
1.4833	50.19
1.4842	50.28
1.4850	50.37
1.4858	50.47
1.4867	50.56
1.4875	50.65
1.4883	50.75
1.4892	50.85
1.4900	50.95
1.4908	51.05
1.4917	51.15
1.4925	51.24
1.4933	51.34
1.4942	51.43
1.4950	51.52
1.4958	51.62
1.4967	51.72
1.4975	51.83
1.4983	51.93
1.4992	52.04
1.5000	52.13
1.5008	52.23
1.5017	52.33
1.5025	52.43
1.5033	52.53
1.5042	52.61
1.5050	52.69
1.5058	52.76
1.5067	52.82
1.5075	52.90
1.5083	52.98
1.5092	53.07
1.5100	53.17
1.5108	53.28
1.5117	53.37
1.5125	53.46
1.5133	53.54
1.5142	53.62
1.5150	53.71
1.5158	53.80
1.5167	53.90
1.5175	53.98
1.5183	54.06
1.5192	54.14
1.5200	54.22
1.5208	54.30
1.5217	54.38
1.5225	54.47
1.5233	54.57
1.5242	54.67
1.5250	54.76
1.5258	54.86
1.5267	54.95
1.5275	55.06
1.5283	55.18
1.5292	55.30
1.5300	55.43
1.5308	55.57
1.5317	55.70
1.5325	55.82
1.5333	55.93
1.5342	56.03
1.5350	56.13
1.5358	56.23
1.5367	56.34
1.5375	56.44
1.5383	56.55
1.5392	56.67
1.5400	56.80
1.5408	56.93
1.5417	57.07
1.5425	57.22
1.5433	57.36
1.5442	57.51
1.5450	57.64
1.5458	57.77
1.5467	57.90
1.5475	58.02
1.5483	58.15
1.5492	58.27
1.5500	58.39
1.5508	58.51
1.5517	58.63
1.5525	58.74
1.5533	58.84
1.5542	58.93
1.5550	59.00
1.5558	59.07
1.5567	59.14
1.5575	59.20
1.5583	59.27
1.5592	59.35
1.5600	59.43
1.5608	59.51
1.5617	59.60
1.5625	59.68
1.5633	59.76
1.5642	59.85
1.5650	59.95
1.5658	60.05
1.5667	60.16
1.5675	60.27
1.5683	60.38
1.5692	60.48
1.5700	60.57
1.5708	60.67
1.5717	60.78
1.5725	60.90
1.5733	61.02
1.5742	61.15
1.5750	61.28
1.5758	61.41
1.5767	61.53
1.5775	61.64
1.5783	61.75
1.5792	61.85
1.5800	61.94
1.5808	62.03
1.5817	62.11
1.5825	62.20
1.5833	62.29
1.5842	62.38
1.5850	62.47
1.5858	62.54
1.5867	62.62
1.5875	62.69
1.5883	62.76
1.5892	62.84
1.5900	62.92
1.5908	63.01
1.5917	63.12
1.5925	63.22
1.5933	63.34
1.5942	63.46
1.5950	63.59
1.5958	63.70
1.5967	63.82
1.5975	63.93
1.5983	64.03
1.5992	64.14
1.6000	64.24
1.6008	64.35
1.6017	64.45
1.6025	64.55
1.6033	64.64
1.6042	64.73
1.6050	64.83
1.6058	64.95
1.6067	65.07
1.6075	65.20
1.6083	65.33
1.6092	65.46
1.6100	65.58
1.6108	65.70
1.6117	65.82
1.6125	65.93
1.6133	66.05
1.6142	66.18
1.6150	66.30
1.6158	66.43
1.6167	66.55
1.6175	66.68
1.6183	66.80
1.6192	66.92
1.6200	67.05
1.6208	67.18
1.6217	67.31
1.6225	67.44
1.6233	67.55
1.6242	67.67
1.6250	67.80
1.6258	67.92
1.6267	68.04
1.6275	68.16
1.6283	68.28
1.6292	68.40
1.6300	68.50
1.6308	68.59
1.6317	68.68
1.6325	68.78
1.6333	68.88
1.6342	68.99
1.6350	69.10
1.6358	69.23
1.6367	69.36
1.6375	69.49
1.6383	69.61
1.6392	69.73
1.6400	69.85
1.6408	69.97
1.6417	70.09
1.6425	70.21
1.6433	70.33
1.6442	70.45
1.6450	70.58
1.6458	70.70
1.6467	70.82
1.6475	70.94
1.6483	71.06
1.6492	71.18
1.6500	71.29
1.6508	71.41
1.6517	71.53
1.6525	71.65
1.6533	71.77
1.6542	71.90
1.6550	72.02
1.6558	72.13
1.6567	72.25
1.6575	72.37
1.6583	72.48
1.6592	72.60
1.6600	72.72
1.6608	72.84
1.6617	72.96
1.6625	73.07
1.6633	73.19
1.6642	73.32
1.6650	73.45
1.6658	73.59
1.6667	73.72
1.6675	73.86
1.6683	74.00
1.6692	74.14
1.6700	74.27
1.6708	74.41
1.6717	74.55
1.6725	74.69
1.6733	74.82
1.6742	74.95
1.6750	75.09
1.6758	75.23
1.6767	75.39
1.6775	75.55
1.6783	75.71
1.6792	75.87
1.6800	76.02
1.6808	76.17
1.6817	76.32
1.6825	76.46
1.6833	76.61
1.6842	76.77
1.6850	76.93
1.6858	77.09
1.6867	77.25
1.6875	77.40
1.6883	77.56
1.6892	77.71
1.6900	77.85
1.6908	77.99
1.6917	78.14
1.6925	78.29
1.6933	78.44
1.6942	78.60
1.6950	78.76
1.6958	78.92
1.6967	79.08
1.6975	79.23
1.6983	79.38
1.6992	79.53
1.7000	79.69
1.7008	79.85
1.7017	80.02
1.7025	80.19
1.7033	80.35
1.7042	80.52
1.7050	80.67
1.7058	80.83
1.7067	81.00
1.7075	81.16
1.7083	81.32
1.7092	81.49
1.7100	81.66
1.7108	81.84
1.7117	82.02
1.7125	82.22
1.7133	82.44
1.7142	82.66
1.7150	82.87
1.7158	83.07
1.7167	83.26
1.7175	83.44
1.7183	83.62
1.7192	83.80
1.7200	83.98
1.7208	84.17
1.7217	84.36
1.7225	84.55
1.7233	84.73
1.7242	84.90
1.7250	85.07
1.7258	85.22
1.7267	85.37
1.7275	85.52
1.7283	85.67
1.7292	85.81
1.7300	85.95
1.7308	86.09
1.7317	86.23
1.7325	86.37
1.7333	86.51
1.7342	86.67
1.7350	86.84
1.7358	87.01
1.7367	87.19
1.7375	87.38
1.7383	87.58
1.7392	87.77
1.7400	87.97
1.7408	88.18
1.7417	88.38
1.7425	88.58
1.7433	88.78
1.7442	88.97
1.7450	89.16
1.7458	89.35
1.7467	89.54
1.7475	89.75
1.7483	89.95
1.7492	90.16
1.7500	90.36
1.7508	90.56
1.7517	90.75
1.7525	90.93
1.7533	91.10
1.7542	91.27
1.7550	91.44
1.7558	91.62
1.7567	91.79
1.7575	91.97
1.7583	92.16
1.7592	92.34
1.7600	92.53
1.7608	92.71
1.7617	92.90
1.7625	93.09
1.7633	93.28
1.7642	93.48
1.7650	93.69
1.7658	93.90
1.7667	94.10
1.7675	94.30
1.7683	94.49
1.7692	94.69
1.7700	94.89
1.7708	95.10
1.7717	95.32
1.7725	95.55
1.7733	95.78
1.7742	96.02
1.7750	96.26
1.7758	96.51
1.7767	96.76
1.7775	96.99
1.7783	97.21
1.7792	97.44
1.7800	97.66
1.7808	97.87
1.7817	98.08
1.7825	98.29
1.7833	98.50
1.7842	98.70
1.7850	98.90
1.7858	99.09
1.7867	99.29
1.7875	99.48
1.7883	99.68
1.7892	99.87
1.7900	100.06
1.7908	100.25
1.7917	100.44
1.7925	100.63
1.7933	100.82
1.7942	101.00
1.7950	101.19
1.7958	101.37
1.7967	101.55
1.7975	101.74
1.7983	101.92
1.7992	102.12
1.8000	102.32
1.8008	102.52
1.8017	102.73
1.8025	102.96
1.8033	103.20
1.8042	103.45
1.8050	103.69
1.8058	103.92
1.8067	104.16
1.8075	104.40
1.8083	104.63
1.8092	104.86
1.8100	105.10
1.8108	105.36
1.8117	105.62
1.8125	105.89
1.8133	106.16
1.8142	106.43
1.8150	106.72
1.8158	107.00
1.8167	107.30
1.8175	107.60
1.8183	107.89
1.8192	108.19
1.8200	108.48
1.8208	108.77
1.8217	109.05
1.8225	109.33
1.8233	109.61
1.8242	109.89
1.8250	110.17
1.8258	110.43
1.8267	110.70
1.8275	110.95
1.8283	111.20
1.8292	111.44
1.8300	111.67
1.8308	111.89
1.8317	112.10
1.8325	112.30
1.8333	112.49
1.8342	112.68
1.8350	112.87
1.8358	113.05
1.8367	113.24
1.8375	113.43
1.8383	113.62
1.8392	113.80
1.8400	113.98
1.8408	114.16
1.8417	114.33
1.8425	114.50
1.8433	114.67
1.8442	114.85
1.8450	115.04
1.8458	115.23
1.8467	115.43
1.8475	115.63
1.8483	115.82
1.8492	116.01
1.8500	116.22
1.8508	116.43
1.8517	116.63
1.8525	116.84
1.8533	117.06
1.8542	117.29
1.8550	117.51
1.8558	117.73
1.8567	117.95
1.8575	118.17
1.8583	118.39
1.8592	118.59
1.8600	118.79
1.8608	118.99
1.8617	119.19
1.8625	119.39
1.8633	119.58
1.8642	119.77
1.8650	119.96
1.8658	120.15
1.8667	120.34
1.8675	120.53
1.8683	120.75
1.8692	120.98
1.8700	121.24
1.8708	121.52
1.8717	121.84
1.8725	122.18
1.8733	122.56
1.8742	122.97
1.8750	123.40
1.8758	123.85
1.8767	124.29
1.8775	124.72
1.8783	125.12
1.8792	125.50
1.8800	125.84
1.8808	126.15
1.8817	126.41
1.8825	126.64
1.8833	126.84
1.8842	127.00
1.8850	127.13
1.8858	127.23
1.8867	127.32
1.8875	127.40
1.8883	127.48
1.8892	127.57
1.8900	127.67
1.8908	127.78
1.8917	127.91
1.8925	128.05
1.8933	128.19
1.8942	128.33
1.8950	128.47
1.8958	128.59
1.8967	128.71
1.8975	128.81
1.8983	128.92
1.8992	129.01
1.9000	129.11
1.9008	129.20
1.9017	129.29
1.9025	129.38
1.9033	129.46
1.9042	129.55
1.9050	129.64
1.9058	129.74
1.9067	129.85
1.9075	129.97
1.9083	130.09
1.9092	130.23
1.9100	130.37
1.9108	130.52
1.9117	130.65
1.9125	130.78
1.9133	130.89
1.9142	130.99
1.9150	131.08
1.9158	131.16
1.9167	131.24
1.9175	131.32
1.9183	131.40
1.9192	131.47
1.9200	131.53
1.9208	131.59
1.9217	131.62
1.9225	131.65
1.9233	131.68
1.9242	131.72
1.9250	131.76
1.9258	131.79
1.9267	131.84
1.9275	131.90
1.9283	131.98
1.9292	132.06
1.9300	132.14
1.9308	132.23
1.9317	132.32
1.9325	132.41
1.9333	132.50
1.9342	132.59
1.9350	132.68
1.9358	132.78
1.9367	132.89
1.9375	133.00
1.9383	133.10
1.9392	133.20
1.9400	133.29
1.9408	133.39
1.9417	133.48
1.9425	133.59
1.9433	133.69
1.9442	133.82
1.9450	133.95
1.9458	134.10
1.9467	134.24
1.9475	134.38
1.9483	134.53
1.9492	134.67
1.9500	134.81
1.9508	134.95
1.9517	135.10
1.9525	135.24
1.9533	135.38
1.9542	135.51
1.9550	135.63
1.9558	135.76
1.9567	135.88
1.9575	136.00
1.9583	136.12
1.9592	136.26
1.9600	136.39
1.9608	136.53
1.9617	136.66
1.9625	136.79
1.9633	136.92
1.9642	137.07
1.9650	137.23
1.9658	137.40
1.9667	137.58
1.9675	137.77
1.9683	137.97
1.9692	138.17
1.9700	138.36
1.9708	138.54
1.9717	138.72
1.9725	138.90
1.9733	139.05
1.9742	139.19
1.9750	139.33
1.9758	139.46
1.9767	139.58
1.9775	139.69
1.9783	139.79
1.9792	139.89
1.9800	139.99
1.9808	140.07
1.9817	140.14
1.9825	140.21
1.9833	140.28
1.9842	140.32
1.9850	140.36
1.9858	140.39
1.9867	140.41
1.9875	140.43
1.9883	140.45
1.9892	140.48
1.9900	140.51
1.9908	140.54
1.9917	140.58
1.9925	140.61
1.9933	140.64
1.9942	140.67
1.9950	140.70
1.9958	140.73
1.9967	140.76
1.9975	140.79
1.9983	140.83
1.9992	140.87
2.0000	140.92
}
[PEAK]
{
Peak ID	1
Peak Ref	1
Time	0.395
Peak	0.359	0.500
Intensity	-105.292	-43.410
Height	152.36
AreaAbs	556.66
Area %BP	100.00
Area %Total	29.42
Width	0.140
[UVPEAKPURITY]
{
PurePeak	FALSE
Purity Factor	986.732	156 of 159 spectra exceed the calculated threshold limit.
Purity Threshold	999.857	Calculated with 156 of 159 spectra
Purity Reference	Peak start and end spectra (integrated) (0.359 / 0.500)
Purity Spectra	5	Selection automatic, 5
}
}
[PEAK]
{
Peak ID	2
Peak Ref	2
Time	0.529
Peak	0.500	0.599
Intensity	-43.410	0.432
Height	32.27
AreaAbs	135.04
Area %BP	24.26
Area %Total	7.14
Width	0.100
[UVPEAKPURITY]
{
PurePeak	TRUE
Purity Factor	0	Not enough data for purity calculations available.
Purity Threshold	0	
Purity Reference	Peak start and end spectra (integrated) (0.500 / 0.599)
Purity Spectra	0	0  (Selection automatic, 5)
}
}
[PEAK]
{
Peak ID	3
Peak Ref	3
Time	0.994
Peak	0.829	1.018
Intensity	6.937	21.635
Height	188.20
AreaAbs	330.76
Area %BP	59.42
Area %Total	17.48
Width	0.189
[UVPEAKPURITY]
{
PurePeak	FALSE
Purity Factor	785.285	198 of 198 spectra exceed the calculated threshold limit.
Purity Threshold	999.736	Calculated with 198 of 198 spectra
Purity Reference	Peak start and end spectra (integrated) (0.829 / 1.018)
Purity Spectra	5	Selection automatic, 5
}
}
[PEAK]
{
Peak ID	4
Peak Ref	4
Time	1.037
Peak	1.018	1.128
Intensity	21.635	30.184
Height	162.52
AreaAbs	242.06
Area %BP	43.48
Area %Total	12.79
Width	0.110
[UVPEAKPURITY]
{
PurePeak	FALSE
Purity Factor	743.665	113 of 113 spectra exceed the calculated threshold limit.
Purity Threshold	999.723	Calculated with 113 of 113 spectra
Purity Reference	Peak start and end spectra (integrated) (1.018 / 1.128)
Purity Spectra	5	Selection automatic, 5
}
}
[PEAK]
{
Peak ID	5
Peak Ref	5
Time	1.166
Peak	1.132	1.253
Intensity	30.258	35.451
Height	277.94
AreaAbs	343.64
Area %BP	61.73
Area %Total	18.16
Width	0.121
[UVPEAKPURITY]
{
PurePeak	FALSE
Purity Factor	997.966	64 of 65 spectra exceed the calculated threshold limit.
Purity Threshold	999.767	Calculated with 64 of 65 spectra
Purity Reference	Peak start and end spectra (integrated) (1.132 / 1.253)
Purity Spectra	5	Selection automatic, 5
}
}
[PEAK]
{
Peak ID	6
Peak Ref	6
Time	1.325
Peak	1.306	1.374
Intensity	38.390	42.591
Height	245.63
AreaAbs	283.82
Area %BP	50.99
Area %Total	15.00
Width	0.068
[UVPEAKPURITY]
{
PurePeak	FALSE
Purity Factor	999.471	58 of 59 spectra exceed the calculated threshold limit.
Purity Threshold	999.804	Calculated with 58 of 59 spectra
Purity Reference	Peak start and end spectra (integrated) (1.306 / 1.373)
Purity Spectra	5	Selection automatic, 5
}
}
}
}
[FUNCTION]
{
Function	2
IonMode	MM-ES+APCI
Type	MSD
Polarity	Positive
Description	Scan (150.00-900.00) @ 0.15
MassDecimals	1
[SPECTRUM]
{
ProcDesc
State
Peak ID	1
Peak Ref	1
Time	0.395
TIC	5482.200
BPI	733.200
BPM	175.0
Continuum	FALSE
Saved
[MASSES]
{
;Mass	Exp. Mass	Obs. Mass	% BPI 	Int. Abs
}
[RESULTS]
{
;Mass	Found	Rel.BPI	Purity	Confirmed	Status	QCIntensity
}
[MS]
{
;Mass	% BPI
151.1	11.852155
156.2	3.518822
159.0	77.959629
163.1	32.296781
171.0	7.269504
175.0	100.000000
176.9	14.048009
179.1	6.969449
190.0	29.732679
190.9	43.930715
191.1	15.480087
194.9	12.915985
195.2	11.865794
199.9	55.400982
215.1	10.761047
216.0	52.400436
217.2	66.530278
218.0	3.559738
221.0	3.505183
234.9	28.027823
235.2	3.614294
241.1	27.304965
251.1	7.992362
257.1	14.470813
275.9	29.391708
276.2	13.106929
359.4	43.698854
430.5	4.132570
430.8	10.911075
431.1	5.060011
}
[SEARCH]
{
}
}
[SPECTRUM]
{
ProcDesc
State
Peak ID	2
Peak Ref	2
Time	0.529
TIC	7017.750
BPI	861.750
BPM	174.9
Continuum	FALSE
Saved
[MASSES]
{
;Mass	Exp. Mass	Obs. Mass	% BPI 	Int. Abs
}
[RESULTS]
{
;Mass	Found	Rel.BPI	Purity	Confirmed	Status	QCIntensity
}
[MS]
{
;Mass	% BPI
159.0	71.090804
163.1	15.868871
172.1	11.517261
174.9	100.000000
177.0	29.155788
189.9	11.285176
190.1	12.373078
190.9	56.034233
194.9	8.456629
195.2	8.340586
200.0	57.586307
215.1	37.496374
216.0	58.848274
217.1	69.321149
218.0	7.426748
220.9	21.192341
221.3	7.600812
235.1	3.684363
237.2	3.626342
239.3	11.473745
241.1	36.539019
256.2	10.675950
258.9	4.032492
259.2	9.196403
261.2	55.062373
262.1	9.007833
275.7	3.756890
276.0	12.663185
279.2	11.981433
292.0	11.517261
359.4	47.548593
}
[SEARCH]
{
}
}
[SPECTRUM]
{
ProcDesc
State
Peak ID	3
Peak Ref	3
Time	1.027
TIC	222492.133
BPI	112981.133
BPM	279.2
Continuum	FALSE
Saved
[MASSES]
{
;Mass	Exp. Mass	Obs. Mass	% BPI 	Int. Abs
}
[RESULTS]
{
;Mass	Found	Rel.BPI	Purity	Confirmed	Status	QCIntensity
}
[MS]
{
;Mass	% BPI
150.2	0.450164
152.2	0.208117
156.0	0.493239
158.9	0.444735
163.1	0.138253
172.1	0.262522
174.0	0.148284
175.0	0.673151
177.0	0.045671
178.0	0.091933
189.9	0.080780
190.2	0.134772
191.0	0.433288
199.2	0.034047
200.0	0.439719
206.1	0.034637
213.1	0.300050
214.1	0.211422
215.1	0.159850
215.9	0.553839
219.9	0.015047
220.1	0.160381
221.0	0.266298
227.1	0.056116
231.0	0.014929
241.1	0.355281
247.1	0.228534
248.1	0.065144
251.0	0.014752
252.9	0.030566
255.2	0.031864
257.1	0.033221
261.0	0.016463
268.9	0.092110
269.2	0.153300
271.1	45.194507
272.1	6.191299
273.0	4.702496
274.1	0.635858
274.9	0.212248
276.1	0.117483
277.4	0.016640
279.2	100.000000
280.1	14.855283
281.1	5.352870
282.2	0.812643
283.0	0.116834
285.0	0.237621
289.1	0.014929
291.0	0.079777
292.1	0.035345
293.1	0.626358
294.0	0.086386
295.1	0.075824
300.1	0.126157
301.1	1.644050
302.1	0.291671
303.1	0.123560
305.3	0.031569
308.1	0.275562
309.1	0.359765
309.9	0.113765
310.8	0.046261
311.1	0.047029
312.0	0.097243
314.7	0.015932
315.2	0.015755
315.8	0.048268
316.2	0.125921
317.1	0.740301
318.1	0.142561
319.0	0.109871
321.0	0.469990
322.1	0.031333
326.0	0.144744
327.2	0.016463
328.1	0.103439
329.1	0.230776
330.0	0.068153
333.1	0.249127
334.1	0.298339
342.1	0.328609
343.2	0.033457
344.3	0.259453
345.0	0.031215
349.2	0.446269
350.0	0.060777
350.3	0.025550
359.3	0.250425
360.0	0.032749
368.1	0.015755
372.2	0.074231
375.0	0.029857
377.3	0.053932
393.2	0.096771
402.9	0.074762
411.1	0.092582
430.9	0.030743
432.3	0.106153
437.2	0.275267
476.3	0.075942
481.4	0.096476
520.4	0.045376
525.4	0.072933
541.1	0.703185
542.0	0.206583
543.1	0.143446
562.8	0.058240
563.3	0.112408
579.2	0.203397
580.1	0.057060
585.0	0.015224
607.1	0.035168
647.1	0.014929
702.8	0.033988
709.1	0.038295
725.1	0.081193
747.2	0.068330
752.9	0.118722
769.1	0.224639
}
[SEARCH]
{
}
}
[SPECTRUM]
{
ProcDesc
State
Peak ID	4
Peak Ref	4
Time	1.037
TIC	272572.000
BPI	116695.778
BPM	279.2
Continuum	FALSE
Saved
[MASSES]
{
;Mass	Exp. Mass	Obs. Mass	% BPI 	Int. Abs
}
[RESULTS]
{
;Mass	Found	Rel.BPI	Purity	Confirmed	Status	QCIntensity
}
[MS]
{
;Mass	% BPI
150.2	0.622892
152.2	0.335821
156.0	0.795897
159.0	0.386285
163.1	0.111020
172.1	0.291927
174.1	0.105974
175.1	0.640888
177.0	0.048940
178.0	0.124255
190.0	0.235275
190.9	0.387427
199.2	0.028374
200.0	0.381429
206.1	0.055891
213.1	0.355626
214.1	0.222802
215.2	0.129872
216.0	0.547673
219.9	0.024280
220.1	0.258793
221.1	0.217946
227.1	0.062556
231.0	0.024089
241.1	0.349341
255.2	0.051416
257.1	0.025708
269.0	0.070078
269.2	0.221088
271.1	72.822305
272.1	9.990364
273.0	7.588011
274.1	1.026030
274.9	0.342486
276.1	0.049035
277.4	0.026850
279.2	100.000000
280.1	14.354513
281.1	5.001895
282.1	0.816749
283.0	0.129206
285.0	0.232037
291.0	0.064841
293.1	0.926340
294.0	0.114733
295.1	0.122350
300.1	0.203568
301.1	1.504006
302.1	0.249271
303.0	0.115209
305.3	0.050940
308.1	0.316016
309.0	0.553195
309.9	0.183573
310.8	0.074648
311.1	0.075886
312.0	0.156913
314.7	0.025708
315.2	0.025422
315.8	0.077885
316.2	0.203187
317.1	0.769046
318.0	0.161198
319.1	0.117399
321.0	0.758382
322.1	0.050559
326.0	0.200712
328.1	0.166911
329.1	0.298211
330.0	0.109973
333.1	0.401995
334.1	0.481404
342.2	0.315255
343.2	0.026660
344.4	0.026374
349.2	0.114543
359.2	0.209567
360.0	0.052844
368.1	0.025422
372.2	0.119780
375.0	0.048178
377.3	0.087026
393.2	0.156152
402.9	0.120637
411.1	0.112067
431.0	0.025803
432.3	0.171291
437.2	0.410755
476.3	0.122541
481.4	0.155675
520.4	0.073220
525.4	0.117685
541.1	1.134669
542.0	0.333345
543.1	0.231466
562.8	0.093977
563.2	0.156152
579.2	0.208710
580.1	0.060842
585.0	0.024565
607.1	0.056748
647.1	0.024089
702.8	0.054843
709.1	0.031992
725.1	0.102927
747.2	0.075886
752.9	0.191571
769.1	0.249081
}
[SEARCH]
{
}
}
[SPECTRUM]
{
ProcDesc
State
Peak ID	5
Peak Ref	5
Time	1.193
TIC	123446.769
BPI	66425.000
BPM	285.0
Continuum	FALSE
Saved
[MASSES]
{
;Mass	Exp. Mass	Obs. Mass	% BPI 	Int. Abs
}
[RESULTS]
{
;Mass	Found	Rel.BPI	Purity	Confirmed	Status	QCIntensity
}
[MS]
{
;Mass	% BPI
150.2	0.062650
156.0	0.695058
157.1	0.064387
158.9	0.665991
163.1	0.272488
166.1	0.062071
172.1	0.623723
173.7	0.075620
174.0	0.386555
175.0	0.972989
190.0	0.227208
190.2	0.061840
191.0	0.575780
200.0	0.538838
205.1	0.029183
206.1	0.073536
213.1	0.092065
214.1	0.093802
215.1	0.537911
215.9	0.839003
219.2	0.496106
219.9	0.030457
220.2	0.337338
221.1	2.346660
222.1	0.313598
223.1	0.610173
232.1	0.062303
241.1	0.563273
250.9	0.062534
251.1	0.267740
271.1	2.103471
272.1	0.216554
273.1	0.423033
275.8	0.111520
276.2	0.378912
279.2	5.858429
280.0	0.337338
280.2	0.694363
281.1	0.488579
285.0	100.000000
286.1	13.260531
287.1	35.099968
288.0	4.858226
289.1	1.892012
289.8	0.042500
290.1	0.228366
297.1	0.172433
307.1	0.032657
308.0	0.033236
311.1	0.070525
314.1	0.073999
317.0	0.289627
321.0	1.095162
323.0	0.259518
324.1	0.261371
325.1	0.242379
326.3	0.072378
333.2	0.078284
334.8	0.234736
335.1	0.661475
336.0	0.062650
337.1	0.356099
338.1	0.062187
344.1	0.093802
344.4	0.062534
346.1	0.029067
349.2	0.135375
359.2	0.213659
372.2	0.211806
377.3	0.183897
386.3	0.030688
387.2	0.029299
388.2	0.133175
393.0	0.034510
416.4	0.123911
421.1	0.062998
431.0	0.166295
465.2	0.061608
476.3	0.077821
481.4	0.044701
520.5	0.216902
521.4	0.062882
525.3	0.205205
564.3	0.140934
569.4	0.118815
613.4	0.126111
657.3	0.107351
701.3	0.111172
747.0	0.029183
780.9	0.308850
781.8	0.103877
782.9	0.350540
783.8	0.068556
785.0	0.104919
}
[SEARCH]
{
}
}
[SPECTRUM]
{
ProcDesc
State
Peak ID	6
Peak Ref	6
Time	1.352
TIC	98261.792
BPI	66144.417
BPM	311.1
Continuum	FALSE
Saved
[MASSES]
{
;Mass	Exp. Mass	Obs. Mass	% BPI 	Int. Abs
}
[RESULTS]
{
;Mass	Found	Rel.BPI	Purity	Confirmed	Status	QCIntensity
}
[MS]
{
;Mass	% BPI
150.2	0.016000
155.1	0.032316
156.1	1.002352
157.1	0.100664
158.9	0.077608
159.1	0.288510
163.1	0.016189
166.1	0.642596
167.3	0.017197
172.2	0.443096
174.0	0.740236
174.9	0.646628
181.1	0.142932
182.1	0.747292
183.0	0.134239
184.1	0.016504
185.9	0.115341
186.3	0.072946
190.9	0.352385
200.0	0.453238
204.0	0.054615
207.3	0.016063
215.9	0.799009
218.1	0.104317
219.1	0.136822
220.9	0.128192
221.1	0.212918
228.2	0.184508
229.0	0.090207
239.0	0.050710
240.9	0.196666
241.2	0.395473
245.1	0.258525
246.1	0.132853
247.2	0.084285
247.4	0.019717
251.1	0.054426
252.1	0.150995
255.9	0.035087
270.8	0.076411
271.1	0.361646
276.0	0.039875
279.0	1.685705
280.1	0.283093
281.0	0.068474
283.1	0.052600
285.0	1.684131
286.0	0.133231
287.1	0.692739
288.0	0.018331
299.1	0.056694
300.1	0.070301
307.8	0.019339
308.1	0.186776
309.0	0.033639
309.3	0.234714
310.2	0.034583
311.1	100.000000
312.2	17.703812
313.1	7.291873
313.8	0.038363
314.1	0.572485
314.9	0.020158
315.1	0.135562
321.0	0.477491
322.0	0.064757
323.1	0.315849
325.1	0.290841
331.4	0.056757
333.1	1.985239
334.0	0.336637
335.0	0.232572
339.3	0.015748
340.1	0.060852
341.1	0.058395
343.2	0.041324
349.1	0.866916
350.1	0.192193
350.9	0.079435
355.3	0.031812
357.2	0.015811
359.4	0.035717
361.2	0.074899
366.0	0.051277
373.1	0.033953
374.0	0.232068
375.0	0.034583
385.1	0.035843
386.3	0.139090
389.1	0.209768
430.9	0.103939
442.2	0.034205
443.1	0.145326
447.3	0.090900
480.2	0.106648
481.1	0.032316
500.4	0.110050
502.2	0.159562
503.0	0.016000
503.3	0.054426
505.4	0.062553
518.3	0.037670
519.9	0.032127
525.2	0.218209
599.1	0.016063
675.2	0.035843
773.1	0.102553
773.9	0.016252
831.9	0.015748
833.1	0.291282
834.0	0.114333
835.1	0.094238
841.0	0.038174
}
[SEARCH]
{
}
}
[SPECTRUM]
{
ProcDesc
State
Peak ID	7
Peak Ref	7
Time	1.928
TIC	180524.778
BPI	96010.778
BPM	259.2
Continuum	FALSE
Saved
[MASSES]
{
;Mass	Exp. Mass	Obs. Mass	% BPI 	Int. Abs
}
[RESULTS]
{
;Mass	Found	Rel.BPI	Purity	Confirmed	Status	QCIntensity
}
[MS]
{
;Mass	% BPI
163.2	0.163870
166.1	0.237821
172.2	0.269761
174.0	0.533852
174.9	0.294296
185.1	8.635142
186.0	1.115847
187.1	0.103229
191.0	0.092814
200.0	0.031131
200.3	0.028932
203.1	0.549244
204.2	0.029626
205.2	0.160630
216.0	0.251013
221.1	0.029163
241.2	0.480039
253.2	0.061336
255.2	0.234812
257.0	0.073487
257.2	0.117001
259.2	100.000000
260.3	15.637249
261.2	2.243151
262.1	0.274853
267.2	0.443122
269.0	0.288046
271.1	0.032519
273.0	0.063650
276.1	0.183544
279.2	1.873517
280.1	0.361302
281.1	0.326584
281.3	0.072214
283.2	0.338272
285.1	0.132740
291.3	0.092235
293.2	0.238862
296.2	0.067816
297.1	0.366510
310.3	0.152529
311.2	0.488718
312.3	0.091193
313.2	2.136913
314.1	0.627476
315.2	0.152413
323.3	0.063997
325.3	0.839489
326.4	0.345216
327.2	0.186553
335.4	0.029858
339.2	1.154847
340.2	0.404121
341.3	1.606185
342.3	0.475641
343.2	0.854649
344.2	0.262471
349.1	0.029973
352.4	4.010661
353.4	1.306913
354.2	0.306100
354.5	0.146743
355.2	0.293486
355.4	0.180188
356.1	0.030089
356.4	0.030089
357.2	0.622847
358.3	0.451454
359.3	0.421596
369.2	0.112950
370.3	10.286461
371.4	3.335505
372.4	1.253100
373.2	0.212939
373.4	0.183313
386.4	3.351823
387.3	1.050229
388.3	0.480386
389.3	0.173129
396.3	0.106701
399.4	0.184817
400.4	0.123829
401.2	0.314432
405.3	0.149983
410.3	0.030436
419.4	4.844248
420.3	1.340012
421.3	0.488255
433.4	0.210046
440.5	0.119315
444.3	0.029048
445.1	0.142229
467.3	0.100336
484.5	0.066196
488.3	0.260966
489.4	0.237473
493.2	0.315011
494.3	0.106817
503.3	0.036107
532.2	0.109941
533.4	0.062146
537.3	0.097790
572.4	0.189099
577.5	0.101840
582.5	0.067585
619.4	0.029279
630.6	0.030552
635.4	0.033214
660.5	0.067585
662.6	0.062724
663.5	0.655829
664.5	0.366626
665.4	0.219536
679.6	0.192108
680.4	0.109016
696.6	0.120125
696.8	0.183081
697.7	0.090962
704.4	0.101840
709.6	0.161440
710.5	0.112487
723.5	0.062493
797.6	0.029858
806.6	0.035066
836.6	0.100220
841.7	0.338504
842.7	0.063187
853.7	0.059368
871.7	0.198820
880.7	0.065965
885.8	0.029511
}
[SEARCH]
{
}
}
[CHROMATOGRAM]
{
TraceNumber	3
Description	MSD1 TIC (+)
Type	TIC
ProcDesc
MaxIntensity	557048.000000
Delay	0
Unscaled	TRUE
[TRACE]
{
0.3789	4988.00
0.3926	5096.00
0.4063	3954.00
0.4201	4780.00
0.4338	5966.00
0.4475	6061.00
0.4613	5423.00
0.4750	5758.00
0.4887	6175.00
0.5024	6680.00
0.5162	7133.00
0.5299	6366.00
0.5436	6822.00
0.5574	6347.00
0.5711	6316.00
0.5848	7362.00
0.5986	9171.00
0.6123	11228.00
0.6260	11527.00
0.6398	9923.00
0.6535	8815.00
0.6672	7265.00
0.6809	6521.00
0.6947	6680.00
0.7084	6297.00
0.7221	5539.00
0.7359	5520.00
0.7496	6171.00
0.7633	7232.00
0.7771	7547.00
0.7908	9258.00
0.8045	11140.00
0.8182	12253.00
0.8320	13570.00
0.8457	13223.00
0.8594	12118.00
0.8732	10548.00
0.8869	8823.00
0.9006	7551.00
0.9144	7263.00
0.9281	8055.00
0.9418	6938.00
0.9556	8434.00
0.9693	18126.00
0.9830	96478.00
0.9967	276828.00
1.0105	477612.00
1.0242	557048.00
1.0379	519608.00
1.0517	457405.00
1.0654	385523.00
1.0791	265668.00
1.0929	138561.00
1.1066	63840.00
1.1203	37796.00
1.1340	28194.00
1.1478	39060.00
1.1615	115226.00
1.1752	259315.00
1.1890	374602.00
1.2027	345673.00
1.2164	214879.00
1.2302	95944.00
1.2439	46486.00
1.2576	29153.00
1.2714	22275.00
1.2851	18763.00
1.2988	15629.00
1.3125	75784.00
1.3263	252676.00
1.3400	469727.00
1.3537	542232.00
1.3675	406031.00
1.3812	211212.00
1.3949	93671.00
1.4087	53155.00
1.4224	37524.00
1.4361	29030.00
1.4498	23505.00
1.4636	19398.00
1.4773	15780.00
1.4910	13975.00
1.5048	13258.00
1.5185	12303.00
1.5322	10576.00
1.5460	10668.00
1.5597	11939.00
1.5734	12238.00
1.5872	10775.00
1.6009	10038.00
1.6146	7804.00
1.6283	9133.00
1.6421	9647.00
1.6558	10278.00
1.6695	9747.00
1.6833	9871.00
1.6970	9402.00
1.7107	10040.00
1.7245	10296.00
1.7382	10989.00
1.7519	11753.00
1.7657	14747.00
1.7794	15322.00
1.7931	18711.00
1.8068	24672.00
1.8206	30582.00
1.8343	31651.00
1.8480	29469.00
1.8618	28966.00
1.8755	35124.00
1.8892	80309.00
1.9030	185871.00
1.9167	303387.00
1.9304	333305.00
1.9441	267698.00
1.9579	177995.00
1.9716	127245.00
1.9853	114238.00
}
[PEAK]
{
Peak ID	3
Peak Ref	1
Time	1.027
Peak	0.942	1.134
Intensity	6938.000	7184.885
Height	551887.06
AreaAbs	2653581.50
Area %BP	100.00
Area %Total	41.07
Width	0.192
[MSPEAKPURITY]
{
NumOfCompounds	2
[MSPEAKPURITY_IONS]
{
;Time	Ion1	Ion2...
1.000	279.0	280.0
1.065	271.0
}
}
}
[PEAK]
{
Peak ID	5
Peak Ref	2
Time	1.193
Peak	1.134	1.293
Intensity	7184.885	7389.542
Height	373804.59
AreaAbs	1229453.00
Area %BP	46.33
Area %Total	19.03
Width	0.159
[MSPEAKPURITY]
{
NumOfCompounds	1
[MSPEAKPURITY_IONS]
{
;Time	Ion1	Ion2...
1.160	285.0	287.0	286.0
}
}
}
[PEAK]
{
Peak ID	6
Peak Ref	3
Time	1.352
Peak	1.293	1.615
Intensity	7389.542	7804.000
Height	537215.38
AreaAbs	1792881.50
Area %BP	67.56
Area %Total	27.75
Width	0.322
[MSPEAKPURITY]
{
NumOfCompounds	1
[MSPEAKPURITY_IONS]
{
;Time	Ion1	Ion2...
1.213	311.0	312.0
}
}
}
[PEAK]
{
Peak ID	7
Peak Ref	4
Time	1.928
Peak	1.875	1.985
Intensity	35124.000	114238.000
Height	262147.28
AreaAbs	785081.63
Area %BP	29.59
Area %Total	12.15
Width	0.110
[MSPEAKPURITY]
{
NumOfCompounds	1
[MSPEAKPURITY_IONS]
{
;Time	Ion1	Ion2...
1.925	259.0	260.0
}
}
}
}
}
[INLET PARAMETERS]
{
----- MS Source Parameters -----
DryingGas Setpoint      5.0 l/min
Neb Pres Setpoint       35.0 psig
Gas Temp Setpoint       350 C
Vaporizer Setpoint      250.0 C
VCap Setpoint           4000 V
Corona Setpoint         4.0 A
Number of Time Entries  0
VCapNeg Setpoint        4000 V
CoronaNeg Setpoint      40 A
VCharge Setpoint        2000 V
VChargeNeg Setpoint     2000  V
-------------- End -------------
}
[PURITY]
{
;Sample purity not enabled in the method
}
}
